创建为新数据集,样品 1541 用户 Administrator 日期 星期六, 三月 11 2017
cm-1,%T
10000.00,0.85
9998.00,0.84
9996.00,0.84
9994.00,0.84
9992.00,0.84
9990.00,0.84
9988.00,0.83
9986.00,0.83
9984.00,0.83
9982.00,0.83
9980.00,0.82
9978.00,0.82
9976.00,0.82
9974.00,0.82
9972.00,0.81
9970.00,0.81
9968.00,0.81
9966.00,0.81
9964.00,0.81
9962.00,0.82
9960.00,0.82
9958.00,0.83
9956.00,0.83
9954.00,0.83
9952.00,0.83
9950.00,0.83
9948.00,0.83
9946.00,0.83
9944.00,0.83
9942.00,0.83
9940.00,0.82
9938.00,0.82
9936.00,0.82
9934.00,0.81
9932.00,0.81
9930.00,0.81
9928.00,0.81
9926.00,0.81
9924.00,0.81
9922.00,0.81
9920.00,0.82
9918.00,0.82
9916.00,0.83
9914.00,0.83
9912.00,0.83
9910.00,0.84
9908.00,0.84
9906.00,0.84
9904.00,0.84
9902.00,0.84
9900.00,0.84
9898.00,0.83
9896.00,0.83
9894.00,0.83
9892.00,0.83
9890.00,0.83
9888.00,0.84
9886.00,0.84
9884.00,0.84
9882.00,0.84
9880.00,0.83
9878.00,0.83
9876.00,0.83
9874.00,0.82
9872.00,0.82
9870.00,0.82
9868.00,0.82
9866.00,0.82
9864.00,0.82
9862.00,0.83
9860.00,0.83
9858.00,0.83
9856.00,0.83
9854.00,0.83
9852.00,0.83
9850.00,0.83
9848.00,0.83
9846.00,0.83
9844.00,0.83
9842.00,0.83
9840.00,0.83
9838.00,0.83
9836.00,0.83
9834.00,0.83
9832.00,0.83
9830.00,0.83
9828.00,0.83
9826.00,0.83
9824.00,0.83
9822.00,0.84
9820.00,0.84
9818.00,0.84
9816.00,0.84
9814.00,0.84
9812.00,0.85
9810.00,0.85
9808.00,0.85
9806.00,0.84
9804.00,0.84
9802.00,0.84
9800.00,0.84
9798.00,0.83
9796.00,0.83
9794.00,0.83
9792.00,0.83
9790.00,0.83
9788.00,0.83
9786.00,0.83
9784.00,0.83
9782.00,0.84
9780.00,0.84
9778.00,0.85
9776.00,0.85
9774.00,0.85
9772.00,0.84
9770.00,0.84
9768.00,0.83
9766.00,0.83
9764.00,0.82
9762.00,0.82
9760.00,0.81
9758.00,0.81
9756.00,0.81
9754.00,0.82
9752.00,0.82
9750.00,0.82
9748.00,0.83
9746.00,0.84
9744.00,0.84
9742.00,0.84
9740.00,0.85
9738.00,0.85
9736.00,0.85
9734.00,0.84
9732.00,0.84
9730.00,0.84
9728.00,0.84
9726.00,0.84
9724.00,0.84
9722.00,0.84
9720.00,0.84
9718.00,0.83
9716.00,0.83
9714.00,0.83
9712.00,0.83
9710.00,0.83
9708.00,0.83
9706.00,0.83
9704.00,0.83
9702.00,0.83
9700.00,0.83
9698.00,0.83
9696.00,0.83
9694.00,0.82
9692.00,0.82
9690.00,0.82
9688.00,0.81
9686.00,0.81
9684.00,0.81
9682.00,0.82
9680.00,0.82
9678.00,0.82
9676.00,0.83
9674.00,0.83
9672.00,0.83
9670.00,0.84
9668.00,0.84
9666.00,0.84
9664.00,0.84
9662.00,0.84
9660.00,0.84
9658.00,0.84
9656.00,0.84
9654.00,0.83
9652.00,0.83
9650.00,0.83
9648.00,0.83
9646.00,0.83
9644.00,0.83
9642.00,0.83
9640.00,0.83
9638.00,0.83
9636.00,0.83
9634.00,0.83
9632.00,0.84
9630.00,0.83
9628.00,0.83
9626.00,0.83
9624.00,0.83
9622.00,0.83
9620.00,0.82
9618.00,0.82
9616.00,0.82
9614.00,0.82
9612.00,0.82
9610.00,0.82
9608.00,0.83
9606.00,0.83
9604.00,0.83
9602.00,0.83
9600.00,0.84
9598.00,0.84
9596.00,0.84
9594.00,0.84
9592.00,0.85
9590.00,0.85
9588.00,0.85
9586.00,0.85
9584.00,0.85
9582.00,0.85
9580.00,0.85
9578.00,0.85
9576.00,0.84
9574.00,0.84
9572.00,0.84
9570.00,0.83
9568.00,0.83
9566.00,0.83
9564.00,0.83
9562.00,0.83
9560.00,0.83
9558.00,0.83
9556.00,0.83
9554.00,0.82
9552.00,0.82
9550.00,0.82
9548.00,0.82
9546.00,0.82
9544.00,0.82
9542.00,0.82
9540.00,0.82
9538.00,0.82
9536.00,0.82
9534.00,0.82
9532.00,0.82
9530.00,0.82
9528.00,0.81
9526.00,0.81
9524.00,0.82
9522.00,0.82
9520.00,0.82
9518.00,0.82
9516.00,0.83
9514.00,0.83
9512.00,0.84
9510.00,0.84
9508.00,0.84
9506.00,0.84
9504.00,0.84
9502.00,0.83
9500.00,0.83
9498.00,0.83
9496.00,0.82
9494.00,0.82
9492.00,0.82
9490.00,0.82
9488.00,0.82
9486.00,0.82
9484.00,0.82
9482.00,0.83
9480.00,0.83
9478.00,0.84
9476.00,0.84
9474.00,0.85
9472.00,0.85
9470.00,0.85
9468.00,0.85
9466.00,0.85
9464.00,0.84
9462.00,0.84
9460.00,0.83
9458.00,0.83
9456.00,0.82
9454.00,0.82
9452.00,0.82
9450.00,0.82
9448.00,0.82
9446.00,0.82
9444.00,0.82
9442.00,0.82
9440.00,0.82
9438.00,0.82
9436.00,0.82
9434.00,0.82
9432.00,0.83
9430.00,0.83
9428.00,0.83
9426.00,0.82
9424.00,0.82
9422.00,0.82
9420.00,0.82
9418.00,0.82
9416.00,0.82
9414.00,0.83
9412.00,0.83
9410.00,0.83
9408.00,0.84
9406.00,0.84
9404.00,0.84
9402.00,0.84
9400.00,0.84
9398.00,0.83
9396.00,0.83
9394.00,0.83
9392.00,0.82
9390.00,0.82
9388.00,0.83
9386.00,0.83
9384.00,0.83
9382.00,0.83
9380.00,0.83
9378.00,0.83
9376.00,0.83
9374.00,0.83
9372.00,0.82
9370.00,0.82
9368.00,0.82
9366.00,0.82
9364.00,0.82
9362.00,0.82
9360.00,0.83
9358.00,0.83
9356.00,0.83
9354.00,0.83
9352.00,0.83
9350.00,0.83
9348.00,0.83
9346.00,0.83
9344.00,0.83
9342.00,0.82
9340.00,0.82
9338.00,0.82
9336.00,0.81
9334.00,0.81
9332.00,0.81
9330.00,0.81
9328.00,0.81
9326.00,0.82
9324.00,0.82
9322.00,0.82
9320.00,0.83
9318.00,0.83
9316.00,0.83
9314.00,0.83
9312.00,0.83
9310.00,0.83
9308.00,0.83
9306.00,0.83
9304.00,0.83
9302.00,0.82
9300.00,0.82
9298.00,0.82
9296.00,0.82
9294.00,0.82
9292.00,0.82
9290.00,0.83
9288.00,0.83
9286.00,0.83
9284.00,0.83
9282.00,0.83
9280.00,0.83
9278.00,0.83
9276.00,0.83
9274.00,0.83
9272.00,0.83
9270.00,0.83
9268.00,0.83
9266.00,0.83
9264.00,0.83
9262.00,0.83
9260.00,0.83
9258.00,0.83
9256.00,0.83
9254.00,0.83
9252.00,0.83
9250.00,0.84
9248.00,0.84
9246.00,0.84
9244.00,0.84
9242.00,0.85
9240.00,0.85
9238.00,0.85
9236.00,0.84
9234.00,0.84
9232.00,0.84
9230.00,0.84
9228.00,0.84
9226.00,0.83
9224.00,0.83
9222.00,0.83
9220.00,0.82
9218.00,0.82
9216.00,0.82
9214.00,0.82
9212.00,0.82
9210.00,0.82
9208.00,0.83
9206.00,0.83
9204.00,0.83
9202.00,0.83
9200.00,0.83
9198.00,0.83
9196.00,0.83
9194.00,0.83
9192.00,0.83
9190.00,0.83
9188.00,0.82
9186.00,0.82
9184.00,0.82
9182.00,0.82
9180.00,0.82
9178.00,0.83
9176.00,0.83
9174.00,0.83
9172.00,0.83
9170.00,0.83
9168.00,0.84
9166.00,0.84
9164.00,0.84
9162.00,0.84
9160.00,0.84
9158.00,0.84
9156.00,0.84
9154.00,0.84
9152.00,0.84
9150.00,0.84
9148.00,0.84
9146.00,0.83
9144.00,0.83
9142.00,0.83
9140.00,0.83
9138.00,0.82
9136.00,0.82
9134.00,0.82
9132.00,0.82
9130.00,0.82
9128.00,0.82
9126.00,0.82
9124.00,0.83
9122.00,0.83
9120.00,0.83
9118.00,0.84
9116.00,0.84
9114.00,0.84
9112.00,0.84
9110.00,0.84
9108.00,0.84
9106.00,0.84
9104.00,0.84
9102.00,0.84
9100.00,0.84
9098.00,0.84
9096.00,0.84
9094.00,0.84
9092.00,0.83
9090.00,0.83
9088.00,0.83
9086.00,0.83
9084.00,0.83
9082.00,0.83
9080.00,0.83
9078.00,0.84
9076.00,0.84
9074.00,0.84
9072.00,0.84
9070.00,0.84
9068.00,0.84
9066.00,0.84
9064.00,0.84
9062.00,0.84
9060.00,0.84
9058.00,0.84
9056.00,0.84
9054.00,0.83
9052.00,0.83
9050.00,0.83
9048.00,0.83
9046.00,0.83
9044.00,0.83
9042.00,0.83
9040.00,0.83
9038.00,0.83
9036.00,0.83
9034.00,0.83
9032.00,0.84
9030.00,0.84
9028.00,0.84
9026.00,0.83
9024.00,0.83
9022.00,0.83
9020.00,0.83
9018.00,0.83
9016.00,0.82
9014.00,0.82
9012.00,0.82
9010.00,0.82
9008.00,0.82
9006.00,0.82
9004.00,0.82
9002.00,0.83
9000.00,0.83
8998.00,0.83
8996.00,0.84
8994.00,0.84
8992.00,0.84
8990.00,0.85
8988.00,0.85
8986.00,0.85
8984.00,0.84
8982.00,0.84
8980.00,0.84
8978.00,0.83
8976.00,0.83
8974.00,0.83
8972.00,0.83
8970.00,0.83
8968.00,0.83
8966.00,0.83
8964.00,0.83
8962.00,0.83
8960.00,0.84
8958.00,0.84
8956.00,0.84
8954.00,0.84
8952.00,0.84
8950.00,0.84
8948.00,0.84
8946.00,0.84
8944.00,0.84
8942.00,0.83
8940.00,0.83
8938.00,0.83
8936.00,0.83
8934.00,0.83
8932.00,0.83
8930.00,0.83
8928.00,0.83
8926.00,0.83
8924.00,0.83
8922.00,0.83
8920.00,0.82
8918.00,0.82
8916.00,0.82
8914.00,0.82
8912.00,0.82
8910.00,0.82
8908.00,0.82
8906.00,0.83
8904.00,0.83
8902.00,0.83
8900.00,0.83
8898.00,0.83
8896.00,0.83
8894.00,0.83
8892.00,0.83
8890.00,0.83
8888.00,0.83
8886.00,0.83
8884.00,0.83
8882.00,0.83
8880.00,0.83
8878.00,0.83
8876.00,0.83
8874.00,0.83
8872.00,0.83
8870.00,0.83
8868.00,0.83
8866.00,0.82
8864.00,0.82
8862.00,0.82
8860.00,0.82
8858.00,0.82
8856.00,0.82
8854.00,0.82
8852.00,0.82
8850.00,0.82
8848.00,0.82
8846.00,0.82
8844.00,0.82
8842.00,0.82
8840.00,0.82
8838.00,0.83
8836.00,0.83
8834.00,0.83
8832.00,0.83
8830.00,0.83
8828.00,0.83
8826.00,0.83
8824.00,0.83
8822.00,0.82
8820.00,0.82
8818.00,0.82
8816.00,0.81
8814.00,0.81
8812.00,0.81
8810.00,0.81
8808.00,0.81
8806.00,0.82
8804.00,0.82
8802.00,0.82
8800.00,0.82
8798.00,0.82
8796.00,0.82
8794.00,0.82
8792.00,0.82
8790.00,0.82
8788.00,0.82
8786.00,0.82
8784.00,0.82
8782.00,0.82
8780.00,0.82
8778.00,0.82
8776.00,0.81
8774.00,0.81
8772.00,0.81
8770.00,0.81
8768.00,0.81
8766.00,0.81
8764.00,0.81
8762.00,0.81
8760.00,0.81
8758.00,0.81
8756.00,0.82
8754.00,0.82
8752.00,0.83
8750.00,0.83
8748.00,0.83
8746.00,0.84
8744.00,0.84
8742.00,0.84
8740.00,0.84
8738.00,0.83
8736.00,0.83
8734.00,0.83
8732.00,0.83
8730.00,0.83
8728.00,0.83
8726.00,0.83
8724.00,0.83
8722.00,0.83
8720.00,0.83
8718.00,0.83
8716.00,0.83
8714.00,0.83
8712.00,0.83
8710.00,0.83
8708.00,0.83
8706.00,0.83
8704.00,0.83
8702.00,0.83
8700.00,0.83
8698.00,0.82
8696.00,0.82
8694.00,0.82
8692.00,0.82
8690.00,0.82
8688.00,0.82
8686.00,0.82
8684.00,0.83
8682.00,0.83
8680.00,0.83
8678.00,0.83
8676.00,0.83
8674.00,0.83
8672.00,0.83
8670.00,0.83
8668.00,0.83
8666.00,0.83
8664.00,0.83
8662.00,0.83
8660.00,0.82
8658.00,0.82
8656.00,0.82
8654.00,0.83
8652.00,0.83
8650.00,0.83
8648.00,0.83
8646.00,0.83
8644.00,0.83
8642.00,0.83
8640.00,0.83
8638.00,0.83
8636.00,0.83
8634.00,0.83
8632.00,0.83
8630.00,0.83
8628.00,0.83
8626.00,0.83
8624.00,0.83
8622.00,0.83
8620.00,0.83
8618.00,0.83
8616.00,0.83
8614.00,0.83
8612.00,0.83
8610.00,0.82
8608.00,0.82
8606.00,0.82
8604.00,0.82
8602.00,0.82
8600.00,0.82
8598.00,0.82
8596.00,0.81
8594.00,0.81
8592.00,0.81
8590.00,0.81
8588.00,0.81
8586.00,0.81
8584.00,0.82
8582.00,0.82
8580.00,0.82
8578.00,0.82
8576.00,0.83
8574.00,0.83
8572.00,0.83
8570.00,0.83
8568.00,0.83
8566.00,0.83
8564.00,0.83
8562.00,0.83
8560.00,0.83
8558.00,0.82
8556.00,0.82
8554.00,0.81
8552.00,0.81
8550.00,0.81
8548.00,0.81
8546.00,0.81
8544.00,0.81
8542.00,0.81
8540.00,0.81
8538.00,0.81
8536.00,0.81
8534.00,0.81
8532.00,0.81
8530.00,0.82
8528.00,0.82
8526.00,0.82
8524.00,0.82
8522.00,0.82
8520.00,0.83
8518.00,0.83
8516.00,0.83
8514.00,0.83
8512.00,0.83
8510.00,0.83
8508.00,0.83
8506.00,0.83
8504.00,0.83
8502.00,0.83
8500.00,0.83
8498.00,0.83
8496.00,0.83
8494.00,0.83
8492.00,0.83
8490.00,0.82
8488.00,0.82
8486.00,0.82
8484.00,0.82
8482.00,0.82
8480.00,0.82
8478.00,0.82
8476.00,0.82
8474.00,0.82
8472.00,0.81
8470.00,0.81
8468.00,0.81
8466.00,0.81
8464.00,0.81
8462.00,0.81
8460.00,0.81
8458.00,0.81
8456.00,0.82
8454.00,0.82
8452.00,0.82
8450.00,0.82
8448.00,0.82
8446.00,0.82
8444.00,0.82
8442.00,0.82
8440.00,0.82
8438.00,0.82
8436.00,0.82
8434.00,0.82
8432.00,0.82
8430.00,0.82
8428.00,0.82
8426.00,0.82
8424.00,0.82
8422.00,0.82
8420.00,0.82
8418.00,0.82
8416.00,0.82
8414.00,0.82
8412.00,0.82
8410.00,0.82
8408.00,0.82
8406.00,0.82
8404.00,0.82
8402.00,0.82
8400.00,0.82
8398.00,0.82
8396.00,0.82
8394.00,0.82
8392.00,0.82
8390.00,0.82
8388.00,0.82
8386.00,0.82
8384.00,0.82
8382.00,0.82
8380.00,0.82
8378.00,0.82
8376.00,0.82
8374.00,0.82
8372.00,0.82
8370.00,0.83
8368.00,0.83
8366.00,0.83
8364.00,0.83
8362.00,0.83
8360.00,0.83
8358.00,0.83
8356.00,0.83
8354.00,0.83
8352.00,0.82
8350.00,0.82
8348.00,0.82
8346.00,0.82
8344.00,0.82
8342.00,0.82
8340.00,0.82
8338.00,0.82
8336.00,0.82
8334.00,0.82
8332.00,0.82
8330.00,0.82
8328.00,0.82
8326.00,0.82
8324.00,0.82
8322.00,0.82
8320.00,0.82
8318.00,0.82
8316.00,0.82
8314.00,0.82
8312.00,0.82
8310.00,0.82
8308.00,0.82
8306.00,0.82
8304.00,0.82
8302.00,0.82
8300.00,0.82
8298.00,0.83
8296.00,0.83
8294.00,0.83
8292.00,0.83
8290.00,0.83
8288.00,0.83
8286.00,0.83
8284.00,0.83
8282.00,0.83
8280.00,0.82
8278.00,0.82
8276.00,0.82
8274.00,0.82
8272.00,0.82
8270.00,0.82
8268.00,0.82
8266.00,0.81
8264.00,0.81
8262.00,0.81
8260.00,0.81
8258.00,0.81
8256.00,0.81
8254.00,0.81
8252.00,0.81
8250.00,0.82
8248.00,0.82
8246.00,0.82
8244.00,0.82
8242.00,0.83
8240.00,0.83
8238.00,0.83
8236.00,0.83
8234.00,0.83
8232.00,0.83
8230.00,0.83
8228.00,0.83
8226.00,0.83
8224.00,0.83
8222.00,0.82
8220.00,0.82
8218.00,0.82
8216.00,0.82
8214.00,0.82
8212.00,0.82
8210.00,0.82
8208.00,0.82
8206.00,0.83
8204.00,0.83
8202.00,0.83
8200.00,0.83
8198.00,0.83
8196.00,0.83
8194.00,0.83
8192.00,0.83
8190.00,0.83
8188.00,0.83
8186.00,0.83
8184.00,0.83
8182.00,0.83
8180.00,0.83
8178.00,0.83
8176.00,0.83
8174.00,0.83
8172.00,0.83
8170.00,0.83
8168.00,0.83
8166.00,0.83
8164.00,0.83
8162.00,0.83
8160.00,0.83
8158.00,0.83
8156.00,0.83
8154.00,0.83
8152.00,0.83
8150.00,0.83
8148.00,0.83
8146.00,0.83
8144.00,0.83
8142.00,0.83
8140.00,0.83
8138.00,0.83
8136.00,0.83
8134.00,0.83
8132.00,0.83
8130.00,0.83
8128.00,0.83
8126.00,0.83
8124.00,0.83
8122.00,0.83
8120.00,0.83
8118.00,0.83
8116.00,0.83
8114.00,0.83
8112.00,0.83
8110.00,0.83
8108.00,0.82
8106.00,0.82
8104.00,0.82
8102.00,0.82
8100.00,0.83
8098.00,0.83
8096.00,0.83
8094.00,0.83
8092.00,0.83
8090.00,0.83
8088.00,0.83
8086.00,0.83
8084.00,0.83
8082.00,0.83
8080.00,0.83
8078.00,0.83
8076.00,0.83
8074.00,0.83
8072.00,0.83
8070.00,0.83
8068.00,0.83
8066.00,0.83
8064.00,0.83
8062.00,0.83
8060.00,0.83
8058.00,0.83
8056.00,0.83
8054.00,0.83
8052.00,0.83
8050.00,0.83
8048.00,0.83
8046.00,0.83
8044.00,0.83
8042.00,0.83
8040.00,0.83
8038.00,0.83
8036.00,0.83
8034.00,0.83
8032.00,0.83
8030.00,0.82
8028.00,0.82
8026.00,0.82
8024.00,0.82
8022.00,0.82
8020.00,0.82
8018.00,0.82
8016.00,0.82
8014.00,0.82
8012.00,0.82
8010.00,0.82
8008.00,0.82
8006.00,0.83
8004.00,0.83
8002.00,0.83
8000.00,0.83
7998.00,0.83
7996.00,0.83
7994.00,0.83
7992.00,0.83
7990.00,0.83
7988.00,0.83
7986.00,0.83
7984.00,0.83
7982.00,0.83
7980.00,0.83
7978.00,0.83
7976.00,0.83
7974.00,0.83
7972.00,0.83
7970.00,0.83
7968.00,0.83
7966.00,0.83
7964.00,0.83
7962.00,0.83
7960.00,0.83
7958.00,0.83
7956.00,0.82
7954.00,0.82
7952.00,0.82
7950.00,0.82
7948.00,0.82
7946.00,0.82
7944.00,0.82
7942.00,0.82
7940.00,0.82
7938.00,0.83
7936.00,0.83
7934.00,0.83
7932.00,0.83
7930.00,0.83
7928.00,0.83
7926.00,0.83
7924.00,0.83
7922.00,0.83
7920.00,0.83
7918.00,0.83
7916.00,0.84
7914.00,0.84
7912.00,0.84
7910.00,0.84
7908.00,0.84
7906.00,0.84
7904.00,0.84
7902.00,0.84
7900.00,0.84
7898.00,0.84
7896.00,0.84
7894.00,0.84
7892.00,0.84
7890.00,0.84
7888.00,0.84
7886.00,0.84
7884.00,0.84
7882.00,0.84
7880.00,0.84
7878.00,0.84
7876.00,0.84
7874.00,0.83
7872.00,0.83
7870.00,0.83
7868.00,0.83
7866.00,0.84
7864.00,0.84
7862.00,0.83
7860.00,0.83
7858.00,0.83
7856.00,0.83
7854.00,0.83
7852.00,0.83
7850.00,0.84
7848.00,0.84
7846.00,0.84
7844.00,0.84
7842.00,0.84
7840.00,0.84
7838.00,0.84
7836.00,0.84
7834.00,0.83
7832.00,0.83
7830.00,0.83
7828.00,0.82
7826.00,0.82
7824.00,0.82
7822.00,0.82
7820.00,0.82
7818.00,0.82
7816.00,0.82
7814.00,0.82
7812.00,0.82
7810.00,0.82
7808.00,0.82
7806.00,0.82
7804.00,0.82
7802.00,0.82
7800.00,0.82
7798.00,0.82
7796.00,0.82
7794.00,0.82
7792.00,0.83
7790.00,0.83
7788.00,0.83
7786.00,0.83
7784.00,0.84
7782.00,0.84
7780.00,0.84
7778.00,0.84
7776.00,0.84
7774.00,0.84
7772.00,0.84
7770.00,0.84
7768.00,0.83
7766.00,0.83
7764.00,0.83
7762.00,0.83
7760.00,0.83
7758.00,0.83
7756.00,0.84
7754.00,0.84
7752.00,0.84
7750.00,0.84
7748.00,0.84
7746.00,0.84
7744.00,0.84
7742.00,0.84
7740.00,0.84
7738.00,0.84
7736.00,0.84
7734.00,0.84
7732.00,0.84
7730.00,0.84
7728.00,0.84
7726.00,0.84
7724.00,0.83
7722.00,0.83
7720.00,0.83
7718.00,0.83
7716.00,0.83
7714.00,0.83
7712.00,0.83
7710.00,0.83
7708.00,0.84
7706.00,0.84
7704.00,0.84
7702.00,0.83
7700.00,0.83
7698.00,0.83
7696.00,0.83
7694.00,0.83
7692.00,0.82
7690.00,0.82
7688.00,0.82
7686.00,0.82
7684.00,0.82
7682.00,0.82
7680.00,0.83
7678.00,0.83
7676.00,0.83
7674.00,0.83
7672.00,0.83
7670.00,0.83
7668.00,0.83
7666.00,0.83
7664.00,0.83
7662.00,0.83
7660.00,0.83
7658.00,0.83
7656.00,0.83
7654.00,0.83
7652.00,0.83
7650.00,0.83
7648.00,0.83
7646.00,0.83
7644.00,0.83
7642.00,0.83
7640.00,0.83
7638.00,0.83
7636.00,0.83
7634.00,0.83
7632.00,0.83
7630.00,0.83
7628.00,0.83
7626.00,0.83
7624.00,0.83
7622.00,0.83
7620.00,0.83
7618.00,0.83
7616.00,0.83
7614.00,0.83
7612.00,0.83
7610.00,0.83
7608.00,0.83
7606.00,0.83
7604.00,0.83
7602.00,0.83
7600.00,0.83
7598.00,0.83
7596.00,0.83
7594.00,0.83
7592.00,0.83
7590.00,0.83
7588.00,0.83
7586.00,0.83
7584.00,0.83
7582.00,0.83
7580.00,0.84
7578.00,0.84
7576.00,0.84
7574.00,0.83
7572.00,0.83
7570.00,0.83
7568.00,0.83
7566.00,0.83
7564.00,0.83
7562.00,0.83
7560.00,0.83
7558.00,0.83
7556.00,0.83
7554.00,0.83
7552.00,0.83
7550.00,0.83
7548.00,0.83
7546.00,0.83
7544.00,0.83
7542.00,0.83
7540.00,0.83
7538.00,0.83
7536.00,0.83
7534.00,0.83
7532.00,0.83
7530.00,0.83
7528.00,0.83
7526.00,0.83
7524.00,0.83
7522.00,0.83
7520.00,0.83
7518.00,0.83
7516.00,0.83
7514.00,0.83
7512.00,0.83
7510.00,0.83
7508.00,0.83
7506.00,0.83
7504.00,0.83
7502.00,0.83
7500.00,0.83
7498.00,0.83
7496.00,0.83
7494.00,0.83
7492.00,0.83
7490.00,0.83
7488.00,0.83
7486.00,0.83
7484.00,0.83
7482.00,0.83
7480.00,0.83
7478.00,0.83
7476.00,0.83
7474.00,0.83
7472.00,0.83
7470.00,0.83
7468.00,0.83
7466.00,0.83
7464.00,0.83
7462.00,0.83
7460.00,0.83
7458.00,0.83
7456.00,0.83
7454.00,0.83
7452.00,0.83
7450.00,0.84
7448.00,0.84
7446.00,0.84
7444.00,0.84
7442.00,0.84
7440.00,0.84
7438.00,0.83
7436.00,0.83
7434.00,0.83
7432.00,0.83
7430.00,0.83
7428.00,0.83
7426.00,0.83
7424.00,0.83
7422.00,0.83
7420.00,0.83
7418.00,0.83
7416.00,0.83
7414.00,0.83
7412.00,0.83
7410.00,0.82
7408.00,0.82
7406.00,0.83
7404.00,0.82
7402.00,0.82
7400.00,0.82
7398.00,0.82
7396.00,0.82
7394.00,0.82
7392.00,0.82
7390.00,0.82
7388.00,0.81
7386.00,0.81
7384.00,0.81
7382.00,0.81
7380.00,0.81
7378.00,0.81
7376.00,0.81
7374.00,0.81
7372.00,0.81
7370.00,0.82
7368.00,0.82
7366.00,0.82
7364.00,0.82
7362.00,0.82
7360.00,0.82
7358.00,0.82
7356.00,0.82
7354.00,0.82
7352.00,0.82
7350.00,0.82
7348.00,0.82
7346.00,0.82
7344.00,0.81
7342.00,0.81
7340.00,0.81
7338.00,0.81
7336.00,0.81
7334.00,0.81
7332.00,0.81
7330.00,0.81
7328.00,0.81
7326.00,0.81
7324.00,0.81
7322.00,0.81
7320.00,0.81
7318.00,0.81
7316.00,0.81
7314.00,0.81
7312.00,0.81
7310.00,0.81
7308.00,0.81
7306.00,0.81
7304.00,0.81
7302.00,0.81
7300.00,0.81
7298.00,0.81
7296.00,0.81
7294.00,0.82
7292.00,0.82
7290.00,0.82
7288.00,0.82
7286.00,0.82
7284.00,0.82
7282.00,0.82
7280.00,0.82
7278.00,0.82
7276.00,0.82
7274.00,0.81
7272.00,0.81
7270.00,0.81
7268.00,0.81
7266.00,0.81
7264.00,0.81
7262.00,0.81
7260.00,0.81
7258.00,0.81
7256.00,0.81
7254.00,0.81
7252.00,0.81
7250.00,0.81
7248.00,0.81
7246.00,0.81
7244.00,0.80
7242.00,0.80
7240.00,0.80
7238.00,0.80
7236.00,0.80
7234.00,0.80
7232.00,0.79
7230.00,0.80
7228.00,0.80
7226.00,0.80
7224.00,0.80
7222.00,0.80
7220.00,0.80
7218.00,0.80
7216.00,0.80
7214.00,0.80
7212.00,0.80
7210.00,0.80
7208.00,0.80
7206.00,0.80
7204.00,0.79
7202.00,0.79
7200.00,0.79
7198.00,0.79
7196.00,0.79
7194.00,0.79
7192.00,0.79
7190.00,0.79
7188.00,0.79
7186.00,0.79
7184.00,0.79
7182.00,0.78
7180.00,0.78
7178.00,0.78
7176.00,0.78
7174.00,0.78
7172.00,0.78
7170.00,0.78
7168.00,0.78
7166.00,0.78
7164.00,0.78
7162.00,0.77
7160.00,0.77
7158.00,0.77
7156.00,0.77
7154.00,0.77
7152.00,0.77
7150.00,0.77
7148.00,0.77
7146.00,0.77
7144.00,0.77
7142.00,0.77
7140.00,0.77
7138.00,0.77
7136.00,0.77
7134.00,0.77
7132.00,0.77
7130.00,0.76
7128.00,0.76
7126.00,0.76
7124.00,0.76
7122.00,0.76
7120.00,0.76
7118.00,0.76
7116.00,0.76
7114.00,0.76
7112.00,0.76
7110.00,0.76
7108.00,0.76
7106.00,0.76
7104.00,0.76
7102.00,0.76
7100.00,0.76
7098.00,0.76
7096.00,0.76
7094.00,0.76
7092.00,0.76
7090.00,0.76
7088.00,0.76
7086.00,0.76
7084.00,0.76
7082.00,0.76
7080.00,0.76
7078.00,0.76
7076.00,0.76
7074.00,0.75
7072.00,0.75
7070.00,0.75
7068.00,0.75
7066.00,0.75
7064.00,0.75
7062.00,0.75
7060.00,0.75
7058.00,0.75
7056.00,0.75
7054.00,0.76
7052.00,0.76
7050.00,0.76
7048.00,0.76
7046.00,0.75
7044.00,0.75
7042.00,0.75
7040.00,0.75
7038.00,0.75
7036.00,0.75
7034.00,0.75
7032.00,0.75
7030.00,0.75
7028.00,0.74
7026.00,0.74
7024.00,0.74
7022.00,0.74
7020.00,0.75
7018.00,0.75
7016.00,0.75
7014.00,0.75
7012.00,0.75
7010.00,0.75
7008.00,0.75
7006.00,0.75
7004.00,0.75
7002.00,0.75
7000.00,0.75
6998.00,0.75
6996.00,0.75
6994.00,0.75
6992.00,0.75
6990.00,0.74
6988.00,0.74
6986.00,0.74
6984.00,0.74
6982.00,0.74
6980.00,0.74
6978.00,0.74
6976.00,0.74
6974.00,0.74
6972.00,0.74
6970.00,0.74
6968.00,0.74
6966.00,0.74
6964.00,0.74
6962.00,0.74
6960.00,0.74
6958.00,0.74
6956.00,0.75
6954.00,0.75
6952.00,0.75
6950.00,0.75
6948.00,0.75
6946.00,0.75
6944.00,0.75
6942.00,0.75
6940.00,0.75
6938.00,0.75
6936.00,0.75
6934.00,0.75
6932.00,0.75
6930.00,0.75
6928.00,0.74
6926.00,0.74
6924.00,0.74
6922.00,0.74
6920.00,0.74
6918.00,0.74
6916.00,0.74
6914.00,0.74
6912.00,0.74
6910.00,0.74
6908.00,0.74
6906.00,0.74
6904.00,0.73
6902.00,0.73
6900.00,0.74
6898.00,0.74
6896.00,0.74
6894.00,0.74
6892.00,0.74
6890.00,0.74
6888.00,0.74
6886.00,0.74
6884.00,0.74
6882.00,0.74
6880.00,0.74
6878.00,0.74
6876.00,0.73
6874.00,0.73
6872.00,0.73
6870.00,0.73
6868.00,0.73
6866.00,0.73
6864.00,0.73
6862.00,0.73
6860.00,0.73
6858.00,0.73
6856.00,0.73
6854.00,0.73
6852.00,0.73
6850.00,0.73
6848.00,0.73
6846.00,0.73
6844.00,0.74
6842.00,0.74
6840.00,0.74
6838.00,0.74
6836.00,0.74
6834.00,0.74
6832.00,0.74
6830.00,0.73
6828.00,0.73
6826.00,0.73
6824.00,0.73
6822.00,0.73
6820.00,0.73
6818.00,0.73
6816.00,0.73
6814.00,0.73
6812.00,0.73
6810.00,0.73
6808.00,0.73
6806.00,0.73
6804.00,0.73
6802.00,0.74
6800.00,0.74
6798.00,0.74
6796.00,0.74
6794.00,0.74
6792.00,0.74
6790.00,0.74
6788.00,0.74
6786.00,0.74
6784.00,0.74
6782.00,0.74
6780.00,0.74
6778.00,0.74
6776.00,0.74
6774.00,0.74
6772.00,0.74
6770.00,0.74
6768.00,0.74
6766.00,0.74
6764.00,0.75
6762.00,0.75
6760.00,0.75
6758.00,0.75
6756.00,0.75
6754.00,0.75
6752.00,0.75
6750.00,0.75
6748.00,0.75
6746.00,0.75
6744.00,0.75
6742.00,0.75
6740.00,0.75
6738.00,0.75
6736.00,0.75
6734.00,0.75
6732.00,0.75
6730.00,0.75
6728.00,0.75
6726.00,0.75
6724.00,0.75
6722.00,0.75
6720.00,0.75
6718.00,0.75
6716.00,0.75
6714.00,0.75
6712.00,0.75
6710.00,0.75
6708.00,0.75
6706.00,0.75
6704.00,0.75
6702.00,0.75
6700.00,0.75
6698.00,0.75
6696.00,0.75
6694.00,0.75
6692.00,0.75
6690.00,0.75
6688.00,0.75
6686.00,0.75
6684.00,0.75
6682.00,0.75
6680.00,0.75
6678.00,0.75
6676.00,0.75
6674.00,0.75
6672.00,0.75
6670.00,0.76
6668.00,0.76
6666.00,0.76
6664.00,0.76
6662.00,0.76
6660.00,0.76
6658.00,0.76
6656.00,0.76
6654.00,0.76
6652.00,0.76
6650.00,0.76
6648.00,0.76
6646.00,0.76
6644.00,0.76
6642.00,0.76
6640.00,0.76
6638.00,0.76
6636.00,0.76
6634.00,0.76
6632.00,0.76
6630.00,0.76
6628.00,0.76
6626.00,0.76
6624.00,0.76
6622.00,0.76
6620.00,0.76
6618.00,0.76
6616.00,0.76
6614.00,0.76
6612.00,0.76
6610.00,0.76
6608.00,0.76
6606.00,0.76
6604.00,0.76
6602.00,0.76
6600.00,0.76
6598.00,0.77
6596.00,0.77
6594.00,0.77
6592.00,0.77
6590.00,0.77
6588.00,0.77
6586.00,0.77
6584.00,0.77
6582.00,0.77
6580.00,0.77
6578.00,0.77
6576.00,0.77
6574.00,0.77
6572.00,0.77
6570.00,0.77
6568.00,0.77
6566.00,0.77
6564.00,0.77
6562.00,0.77
6560.00,0.77
6558.00,0.77
6556.00,0.77
6554.00,0.77
6552.00,0.77
6550.00,0.77
6548.00,0.77
6546.00,0.77
6544.00,0.77
6542.00,0.77
6540.00,0.77
6538.00,0.77
6536.00,0.77
6534.00,0.77
6532.00,0.77
6530.00,0.77
6528.00,0.77
6526.00,0.77
6524.00,0.77
6522.00,0.77
6520.00,0.77
6518.00,0.77
6516.00,0.77
6514.00,0.77
6512.00,0.77
6510.00,0.78
6508.00,0.78
6506.00,0.77
6504.00,0.77
6502.00,0.77
6500.00,0.77
6498.00,0.77
6496.00,0.77
6494.00,0.77
6492.00,0.77
6490.00,0.77
6488.00,0.77
6486.00,0.77
6484.00,0.77
6482.00,0.77
6480.00,0.77
6478.00,0.77
6476.00,0.77
6474.00,0.77
6472.00,0.78
6470.00,0.78
6468.00,0.78
6466.00,0.78
6464.00,0.78
6462.00,0.78
6460.00,0.78
6458.00,0.78
6456.00,0.78
6454.00,0.78
6452.00,0.78
6450.00,0.78
6448.00,0.78
6446.00,0.78
6444.00,0.78
6442.00,0.78
6440.00,0.78
6438.00,0.78
6436.00,0.78
6434.00,0.78
6432.00,0.78
6430.00,0.78
6428.00,0.78
6426.00,0.78
6424.00,0.78
6422.00,0.78
6420.00,0.78
6418.00,0.78
6416.00,0.78
6414.00,0.78
6412.00,0.78
6410.00,0.78
6408.00,0.78
6406.00,0.78
6404.00,0.78
6402.00,0.78
6400.00,0.78
6398.00,0.78
6396.00,0.78
6394.00,0.78
6392.00,0.78
6390.00,0.78
6388.00,0.78
6386.00,0.78
6384.00,0.78
6382.00,0.78
6380.00,0.78
6378.00,0.78
6376.00,0.78
6374.00,0.78
6372.00,0.78
6370.00,0.78
6368.00,0.78
6366.00,0.78
6364.00,0.78
6362.00,0.78
6360.00,0.78
6358.00,0.78
6356.00,0.78
6354.00,0.78
6352.00,0.78
6350.00,0.78
6348.00,0.78
6346.00,0.79
6344.00,0.79
6342.00,0.79
6340.00,0.79
6338.00,0.78
6336.00,0.78
6334.00,0.78
6332.00,0.78
6330.00,0.78
6328.00,0.78
6326.00,0.79
6324.00,0.79
6322.00,0.79
6320.00,0.79
6318.00,0.79
6316.00,0.79
6314.00,0.79
6312.00,0.79
6310.00,0.79
6308.00,0.79
6306.00,0.79
6304.00,0.79
6302.00,0.79
6300.00,0.79
6298.00,0.79
6296.00,0.79
6294.00,0.79
6292.00,0.79
6290.00,0.79
6288.00,0.79
6286.00,0.79
6284.00,0.79
6282.00,0.79
6280.00,0.79
6278.00,0.79
6276.00,0.79
6274.00,0.79
6272.00,0.79
6270.00,0.79
6268.00,0.79
6266.00,0.79
6264.00,0.79
6262.00,0.79
6260.00,0.79
6258.00,0.79
6256.00,0.79
6254.00,0.80
6252.00,0.80
6250.00,0.80
6248.00,0.80
6246.00,0.80
6244.00,0.80
6242.00,0.80
6240.00,0.80
6238.00,0.80
6236.00,0.80
6234.00,0.80
6232.00,0.80
6230.00,0.80
6228.00,0.80
6226.00,0.80
6224.00,0.80
6222.00,0.80
6220.00,0.80
6218.00,0.80
6216.00,0.80
6214.00,0.80
6212.00,0.80
6210.00,0.80
6208.00,0.80
6206.00,0.80
6204.00,0.80
6202.00,0.80
6200.00,0.80
6198.00,0.80
6196.00,0.80
6194.00,0.80
6192.00,0.80
6190.00,0.81
6188.00,0.81
6186.00,0.81
6184.00,0.81
6182.00,0.80
6180.00,0.80
6178.00,0.80
6176.00,0.80
6174.00,0.80
6172.00,0.80
6170.00,0.80
6168.00,0.80
6166.00,0.80
6164.00,0.81
6162.00,0.81
6160.00,0.81
6158.00,0.81
6156.00,0.81
6154.00,0.81
6152.00,0.81
6150.00,0.81
6148.00,0.81
6146.00,0.81
6144.00,0.81
6142.00,0.81
6140.00,0.81
6138.00,0.81
6136.00,0.81
6134.00,0.81
6132.00,0.81
6130.00,0.82
6128.00,0.82
6126.00,0.82
6124.00,0.82
6122.00,0.82
6120.00,0.82
6118.00,0.82
6116.00,0.82
6114.00,0.82
6112.00,0.82
6110.00,0.82
6108.00,0.82
6106.00,0.82
6104.00,0.82
6102.00,0.82
6100.00,0.82
6098.00,0.82
6096.00,0.82
6094.00,0.82
6092.00,0.82
6090.00,0.81
6088.00,0.81
6086.00,0.81
6084.00,0.81
6082.00,0.82
6080.00,0.82
6078.00,0.82
6076.00,0.82
6074.00,0.82
6072.00,0.82
6070.00,0.82
6068.00,0.82
6066.00,0.82
6064.00,0.82
6062.00,0.82
6060.00,0.82
6058.00,0.82
6056.00,0.82
6054.00,0.82
6052.00,0.82
6050.00,0.82
6048.00,0.82
6046.00,0.82
6044.00,0.82
6042.00,0.82
6040.00,0.82
6038.00,0.82
6036.00,0.82
6034.00,0.82
6032.00,0.82
6030.00,0.82
6028.00,0.82
6026.00,0.82
6024.00,0.82
6022.00,0.82
6020.00,0.82
6018.00,0.82
6016.00,0.82
6014.00,0.82
6012.00,0.82
6010.00,0.82
6008.00,0.82
6006.00,0.82
6004.00,0.82
6002.00,0.82
6000.00,0.82
5998.00,0.82
5996.00,0.82
5994.00,0.82
5992.00,0.82
5990.00,0.82
5988.00,0.82
5986.00,0.82
5984.00,0.82
5982.00,0.82
5980.00,0.82
5978.00,0.82
5976.00,0.82
5974.00,0.82
5972.00,0.82
5970.00,0.82
5968.00,0.82
5966.00,0.81
5964.00,0.81
5962.00,0.81
5960.00,0.81
5958.00,0.81
5956.00,0.81
5954.00,0.81
5952.00,0.81
5950.00,0.81
5948.00,0.81
5946.00,0.80
5944.00,0.80
5942.00,0.80
5940.00,0.80
5938.00,0.80
5936.00,0.80
5934.00,0.80
5932.00,0.80
5930.00,0.80
5928.00,0.80
5926.00,0.80
5924.00,0.80
5922.00,0.80
5920.00,0.80
5918.00,0.80
5916.00,0.80
5914.00,0.80
5912.00,0.80
5910.00,0.80
5908.00,0.80
5906.00,0.80
5904.00,0.80
5902.00,0.80
5900.00,0.80
5898.00,0.80
5896.00,0.80
5894.00,0.80
5892.00,0.80
5890.00,0.80
5888.00,0.80
5886.00,0.80
5884.00,0.80
5882.00,0.80
5880.00,0.80
5878.00,0.80
5876.00,0.80
5874.00,0.80
5872.00,0.80
5870.00,0.80
5868.00,0.80
5866.00,0.80
5864.00,0.81
5862.00,0.81
5860.00,0.81
5858.00,0.81
5856.00,0.81
5854.00,0.81
5852.00,0.81
5850.00,0.81
5848.00,0.81
5846.00,0.81
5844.00,0.81
5842.00,0.81
5840.00,0.81
5838.00,0.81
5836.00,0.81
5834.00,0.81
5832.00,0.81
5830.00,0.81
5828.00,0.81
5826.00,0.81
5824.00,0.81
5822.00,0.81
5820.00,0.81
5818.00,0.81
5816.00,0.81
5814.00,0.81
5812.00,0.81
5810.00,0.81
5808.00,0.81
5806.00,0.81
5804.00,0.81
5802.00,0.81
5800.00,0.81
5798.00,0.81
5796.00,0.81
5794.00,0.81
5792.00,0.81
5790.00,0.81
5788.00,0.81
5786.00,0.81
5784.00,0.80
5782.00,0.80
5780.00,0.80
5778.00,0.80
5776.00,0.80
5774.00,0.80
5772.00,0.80
5770.00,0.80
5768.00,0.81
5766.00,0.81
5764.00,0.81
5762.00,0.81
5760.00,0.81
5758.00,0.81
5756.00,0.81
5754.00,0.81
5752.00,0.81
5750.00,0.81
5748.00,0.81
5746.00,0.81
5744.00,0.81
5742.00,0.81
5740.00,0.81
5738.00,0.81
5736.00,0.81
5734.00,0.81
5732.00,0.82
5730.00,0.82
5728.00,0.82
5726.00,0.82
5724.00,0.82
5722.00,0.82
5720.00,0.82
5718.00,0.82
5716.00,0.82
5714.00,0.82
5712.00,0.82
5710.00,0.82
5708.00,0.82
5706.00,0.82
5704.00,0.82
5702.00,0.82
5700.00,0.82
5698.00,0.82
5696.00,0.82
5694.00,0.81
5692.00,0.81
5690.00,0.81
5688.00,0.81
5686.00,0.81
5684.00,0.81
5682.00,0.81
5680.00,0.81
5678.00,0.81
5676.00,0.81
5674.00,0.81
5672.00,0.81
5670.00,0.81
5668.00,0.81
5666.00,0.81
5664.00,0.82
5662.00,0.82
5660.00,0.82
5658.00,0.82
5656.00,0.82
5654.00,0.82
5652.00,0.82
5650.00,0.82
5648.00,0.82
5646.00,0.82
5644.00,0.82
5642.00,0.82
5640.00,0.82
5638.00,0.82
5636.00,0.82
5634.00,0.82
5632.00,0.82
5630.00,0.82
5628.00,0.82
5626.00,0.82
5624.00,0.82
5622.00,0.82
5620.00,0.82
5618.00,0.82
5616.00,0.82
5614.00,0.82
5612.00,0.82
5610.00,0.82
5608.00,0.83
5606.00,0.83
5604.00,0.83
5602.00,0.83
5600.00,0.83
5598.00,0.83
5596.00,0.83
5594.00,0.83
5592.00,0.83
5590.00,0.83
5588.00,0.83
5586.00,0.83
5584.00,0.83
5582.00,0.83
5580.00,0.83
5578.00,0.83
5576.00,0.83
5574.00,0.83
5572.00,0.83
5570.00,0.83
5568.00,0.83
5566.00,0.83
5564.00,0.83
5562.00,0.83
5560.00,0.83
5558.00,0.83
5556.00,0.83
5554.00,0.83
5552.00,0.83
5550.00,0.83
5548.00,0.83
5546.00,0.84
5544.00,0.84
5542.00,0.84
5540.00,0.84
5538.00,0.84
5536.00,0.84
5534.00,0.84
5532.00,0.84
5530.00,0.84
5528.00,0.84
5526.00,0.84
5524.00,0.84
5522.00,0.84
5520.00,0.84
5518.00,0.84
5516.00,0.84
5514.00,0.84
5512.00,0.84
5510.00,0.84
5508.00,0.84
5506.00,0.84
5504.00,0.84
5502.00,0.84
5500.00,0.84
5498.00,0.84
5496.00,0.84
5494.00,0.84
5492.00,0.84
5490.00,0.84
5488.00,0.84
5486.00,0.84
5484.00,0.84
5482.00,0.84
5480.00,0.84
5478.00,0.84
5476.00,0.84
5474.00,0.84
5472.00,0.84
5470.00,0.84
5468.00,0.84
5466.00,0.84
5464.00,0.84
5462.00,0.84
5460.00,0.84
5458.00,0.84
5456.00,0.84
5454.00,0.84
5452.00,0.84
5450.00,0.84
5448.00,0.84
5446.00,0.84
5444.00,0.84
5442.00,0.84
5440.00,0.84
5438.00,0.84
5436.00,0.84
5434.00,0.84
5432.00,0.84
5430.00,0.84
5428.00,0.84
5426.00,0.84
5424.00,0.84
5422.00,0.84
5420.00,0.84
5418.00,0.84
5416.00,0.84
5414.00,0.84
5412.00,0.84
5410.00,0.84
5408.00,0.84
5406.00,0.84
5404.00,0.84
5402.00,0.84
5400.00,0.84
5398.00,0.84
5396.00,0.84
5394.00,0.84
5392.00,0.84
5390.00,0.84
5388.00,0.84
5386.00,0.84
5384.00,0.84
5382.00,0.84
5380.00,0.84
5378.00,0.84
5376.00,0.84
5374.00,0.84
5372.00,0.84
5370.00,0.84
5368.00,0.84
5366.00,0.84
5364.00,0.84
5362.00,0.84
5360.00,0.84
5358.00,0.83
5356.00,0.83
5354.00,0.83
5352.00,0.83
5350.00,0.83
5348.00,0.83
5346.00,0.82
5344.00,0.82
5342.00,0.82
5340.00,0.82
5338.00,0.82
5336.00,0.81
5334.00,0.81
5332.00,0.81
5330.00,0.81
5328.00,0.81
5326.00,0.81
5324.00,0.81
5322.00,0.80
5320.00,0.80
5318.00,0.80
5316.00,0.80
5314.00,0.79
5312.00,0.79
5310.00,0.79
5308.00,0.78
5306.00,0.78
5304.00,0.78
5302.00,0.78
5300.00,0.77
5298.00,0.77
5296.00,0.77
5294.00,0.77
5292.00,0.76
5290.00,0.76
5288.00,0.76
5286.00,0.75
5284.00,0.75
5282.00,0.75
5280.00,0.75
5278.00,0.74
5276.00,0.74
5274.00,0.74
5272.00,0.74
5270.00,0.73
5268.00,0.73
5266.00,0.73
5264.00,0.73
5262.00,0.73
5260.00,0.73
5258.00,0.72
5256.00,0.72
5254.00,0.72
5252.00,0.72
5250.00,0.72
5248.00,0.72
5246.00,0.71
5244.00,0.71
5242.00,0.71
5240.00,0.71
5238.00,0.71
5236.00,0.71
5234.00,0.71
5232.00,0.71
5230.00,0.70
5228.00,0.70
5226.00,0.70
5224.00,0.70
5222.00,0.70
5220.00,0.69
5218.00,0.69
5216.00,0.69
5214.00,0.69
5212.00,0.69
5210.00,0.69
5208.00,0.69
5206.00,0.69
5204.00,0.69
5202.00,0.69
5200.00,0.68
5198.00,0.68
5196.00,0.68
5194.00,0.68
5192.00,0.68
5190.00,0.68
5188.00,0.68
5186.00,0.68
5184.00,0.68
5182.00,0.68
5180.00,0.68
5178.00,0.69
5176.00,0.69
5174.00,0.69
5172.00,0.69
5170.00,0.69
5168.00,0.68
5166.00,0.68
5164.00,0.68
5162.00,0.68
5160.00,0.68
5158.00,0.68
5156.00,0.68
5154.00,0.68
5152.00,0.68
5150.00,0.68
5148.00,0.69
5146.00,0.69
5144.00,0.69
5142.00,0.69
5140.00,0.69
5138.00,0.69
5136.00,0.69
5134.00,0.69
5132.00,0.69
5130.00,0.69
5128.00,0.69
5126.00,0.69
5124.00,0.69
5122.00,0.69
5120.00,0.70
5118.00,0.70
5116.00,0.70
5114.00,0.70
5112.00,0.70
5110.00,0.70
5108.00,0.70
5106.00,0.70
5104.00,0.71
5102.00,0.71
5100.00,0.71
5098.00,0.71
5096.00,0.71
5094.00,0.71
5092.00,0.71
5090.00,0.71
5088.00,0.71
5086.00,0.71
5084.00,0.71
5082.00,0.72
5080.00,0.72
5078.00,0.72
5076.00,0.72
5074.00,0.72
5072.00,0.72
5070.00,0.72
5068.00,0.72
5066.00,0.72
5064.00,0.72
5062.00,0.72
5060.00,0.73
5058.00,0.73
5056.00,0.73
5054.00,0.73
5052.00,0.73
5050.00,0.73
5048.00,0.74
5046.00,0.74
5044.00,0.74
5042.00,0.74
5040.00,0.74
5038.00,0.74
5036.00,0.74
5034.00,0.74
5032.00,0.74
5030.00,0.74
5028.00,0.75
5026.00,0.75
5024.00,0.75
5022.00,0.75
5020.00,0.75
5018.00,0.75
5016.00,0.75
5014.00,0.75
5012.00,0.75
5010.00,0.75
5008.00,0.75
5006.00,0.76
5004.00,0.76
5002.00,0.76
5000.00,0.76
4998.00,0.76
4996.00,0.76
4994.00,0.76
4992.00,0.76
4990.00,0.76
4988.00,0.76
4986.00,0.76
4984.00,0.76
4982.00,0.76
4980.00,0.76
4978.00,0.77
4976.00,0.77
4974.00,0.77
4972.00,0.77
4970.00,0.77
4968.00,0.77
4966.00,0.77
4964.00,0.77
4962.00,0.77
4960.00,0.77
4958.00,0.78
4956.00,0.78
4954.00,0.78
4952.00,0.78
4950.00,0.78
4948.00,0.78
4946.00,0.78
4944.00,0.78
4942.00,0.78
4940.00,0.78
4938.00,0.78
4936.00,0.78
4934.00,0.78
4932.00,0.78
4930.00,0.78
4928.00,0.78
4926.00,0.78
4924.00,0.78
4922.00,0.78
4920.00,0.78
4918.00,0.78
4916.00,0.78
4914.00,0.78
4912.00,0.78
4910.00,0.78
4908.00,0.78
4906.00,0.78
4904.00,0.79
4902.00,0.79
4900.00,0.79
4898.00,0.79
4896.00,0.79
4894.00,0.79
4892.00,0.79
4890.00,0.79
4888.00,0.79
4886.00,0.79
4884.00,0.79
4882.00,0.79
4880.00,0.79
4878.00,0.79
4876.00,0.79
4874.00,0.79
4872.00,0.79
4870.00,0.79
4868.00,0.79
4866.00,0.79
4864.00,0.79
4862.00,0.79
4860.00,0.79
4858.00,0.79
4856.00,0.79
4854.00,0.79
4852.00,0.79
4850.00,0.79
4848.00,0.79
4846.00,0.79
4844.00,0.79
4842.00,0.80
4840.00,0.80
4838.00,0.80
4836.00,0.80
4834.00,0.80
4832.00,0.80
4830.00,0.80
4828.00,0.80
4826.00,0.80
4824.00,0.80
4822.00,0.80
4820.00,0.80
4818.00,0.80
4816.00,0.80
4814.00,0.80
4812.00,0.80
4810.00,0.80
4808.00,0.80
4806.00,0.80
4804.00,0.80
4802.00,0.80
4800.00,0.81
4798.00,0.81
4796.00,0.81
4794.00,0.81
4792.00,0.81
4790.00,0.81
4788.00,0.81
4786.00,0.81
4784.00,0.81
4782.00,0.81
4780.00,0.81
4778.00,0.81
4776.00,0.81
4774.00,0.81
4772.00,0.81
4770.00,0.81
4768.00,0.81
4766.00,0.81
4764.00,0.81
4762.00,0.81
4760.00,0.82
4758.00,0.82
4756.00,0.82
4754.00,0.82
4752.00,0.82
4750.00,0.82
4748.00,0.82
4746.00,0.82
4744.00,0.82
4742.00,0.82
4740.00,0.82
4738.00,0.82
4736.00,0.82
4734.00,0.82
4732.00,0.82
4730.00,0.82
4728.00,0.82
4726.00,0.82
4724.00,0.82
4722.00,0.82
4720.00,0.82
4718.00,0.82
4716.00,0.82
4714.00,0.82
4712.00,0.82
4710.00,0.82
4708.00,0.82
4706.00,0.82
4704.00,0.82
4702.00,0.82
4700.00,0.82
4698.00,0.82
4696.00,0.83
4694.00,0.83
4692.00,0.83
4690.00,0.83
4688.00,0.83
4686.00,0.83
4684.00,0.83
4682.00,0.83
4680.00,0.83
4678.00,0.83
4676.00,0.83
4674.00,0.83
4672.00,0.83
4670.00,0.83
4668.00,0.83
4666.00,0.83
4664.00,0.83
4662.00,0.83
4660.00,0.84
4658.00,0.84
4656.00,0.84
4654.00,0.84
4652.00,0.84
4650.00,0.84
4648.00,0.83
4646.00,0.83
4644.00,0.83
4642.00,0.83
4640.00,0.83
4638.00,0.83
4636.00,0.84
4634.00,0.84
4632.00,0.84
4630.00,0.84
4628.00,0.84
4626.00,0.84
4624.00,0.84
4622.00,0.84
4620.00,0.84
4618.00,0.84
4616.00,0.84
4614.00,0.84
4612.00,0.84
4610.00,0.84
4608.00,0.84
4606.00,0.84
4604.00,0.84
4602.00,0.84
4600.00,0.84
4598.00,0.84
4596.00,0.84
4594.00,0.84
4592.00,0.84
4590.00,0.84
4588.00,0.84
4586.00,0.84
4584.00,0.84
4582.00,0.84
4580.00,0.84
4578.00,0.84
4576.00,0.84
4574.00,0.84
4572.00,0.84
4570.00,0.84
4568.00,0.84
4566.00,0.84
4564.00,0.84
4562.00,0.84
4560.00,0.84
4558.00,0.84
4556.00,0.84
4554.00,0.84
4552.00,0.84
4550.00,0.84
4548.00,0.84
4546.00,0.84
4544.00,0.84
4542.00,0.84
4540.00,0.84
4538.00,0.84
4536.00,0.84
4534.00,0.84
4532.00,0.84
4530.00,0.84
4528.00,0.84
4526.00,0.84
4524.00,0.84
4522.00,0.84
4520.00,0.84
4518.00,0.84
4516.00,0.84
4514.00,0.84
4512.00,0.84
4510.00,0.84
4508.00,0.84
4506.00,0.84
4504.00,0.84
4502.00,0.84
4500.00,0.84
4498.00,0.84
4496.00,0.84
4494.00,0.84
4492.00,0.84
4490.00,0.84
4488.00,0.84
4486.00,0.84
4484.00,0.84
4482.00,0.84
4480.00,0.84
4478.00,0.84
4476.00,0.84
4474.00,0.84
4472.00,0.84
4470.00,0.84
4468.00,0.84
4466.00,0.84
4464.00,0.84
4462.00,0.84
4460.00,0.84
4458.00,0.84
4456.00,0.84
4454.00,0.84
4452.00,0.84
4450.00,0.84
4448.00,0.84
4446.00,0.84
4444.00,0.83
4442.00,0.83
4440.00,0.83
4438.00,0.82
4436.00,0.82
4434.00,0.82
4432.00,0.81
4430.00,0.81
4428.00,0.81
4426.00,0.80
4424.00,0.80
4422.00,0.80
4420.00,0.80
4418.00,0.79
4416.00,0.79
4414.00,0.79
4412.00,0.79
4410.00,0.79
4408.00,0.79
4406.00,0.79
4404.00,0.79
4402.00,0.79
4400.00,0.79
4398.00,0.79
4396.00,0.79
4394.00,0.80
4392.00,0.80
4390.00,0.80
4388.00,0.81
4386.00,0.81
4384.00,0.81
4382.00,0.81
4380.00,0.82
4378.00,0.82
4376.00,0.82
4374.00,0.82
4372.00,0.82
4370.00,0.82
4368.00,0.82
4366.00,0.82
4364.00,0.81
4362.00,0.81
4360.00,0.81
4358.00,0.81
4356.00,0.81
4354.00,0.80
4352.00,0.80
4350.00,0.80
4348.00,0.80
4346.00,0.80
4344.00,0.80
4342.00,0.80
4340.00,0.80
4338.00,0.80
4336.00,0.80
4334.00,0.80
4332.00,0.80
4330.00,0.80
4328.00,0.80
4326.00,0.81
4324.00,0.81
4322.00,0.81
4320.00,0.82
4318.00,0.82
4316.00,0.82
4314.00,0.83
4312.00,0.83
4310.00,0.83
4308.00,0.83
4306.00,0.84
4304.00,0.84
4302.00,0.84
4300.00,0.84
4298.00,0.84
4296.00,0.84
4294.00,0.84
4292.00,0.84
4290.00,0.84
4288.00,0.84
4286.00,0.84
4284.00,0.84
4282.00,0.84
4280.00,0.84
4278.00,0.84
4276.00,0.84
4274.00,0.84
4272.00,0.84
4270.00,0.84
4268.00,0.84
4266.00,0.84
4264.00,0.83
4262.00,0.83
4260.00,0.83
4258.00,0.83
4256.00,0.83
4254.00,0.83
4252.00,0.83
4250.00,0.83
4248.00,0.83
4246.00,0.83
4244.00,0.83
4242.00,0.84
4240.00,0.84
4238.00,0.84
4236.00,0.84
4234.00,0.84
4232.00,0.84
4230.00,0.84
4228.00,0.84
4226.00,0.84
4224.00,0.84
4222.00,0.84
4220.00,0.84
4218.00,0.84
4216.00,0.84
4214.00,0.84
4212.00,0.84
4210.00,0.84
4208.00,0.84
4206.00,0.84
4204.00,0.84
4202.00,0.84
4200.00,0.84
4198.00,0.84
4196.00,0.84
4194.00,0.84
4192.00,0.84
4190.00,0.84
4188.00,0.84
4186.00,0.84
4184.00,0.84
4182.00,0.84
4180.00,0.84
4178.00,0.84
4176.00,0.84
4174.00,0.84
4172.00,0.84
4170.00,0.84
4168.00,0.84
4166.00,0.84
4164.00,0.84
4162.00,0.84
4160.00,0.84
4158.00,0.84
4156.00,0.84
4154.00,0.84
4152.00,0.84
4150.00,0.84
4148.00,0.84
4146.00,0.84
4144.00,0.84
4142.00,0.84
4140.00,0.84
4138.00,0.84
4136.00,0.84
4134.00,0.84
4132.00,0.84
4130.00,0.84
4128.00,0.84
4126.00,0.84
4124.00,0.84
4122.00,0.84
4120.00,0.84
4118.00,0.84
4116.00,0.84
4114.00,0.84
4112.00,0.84
4110.00,0.84
4108.00,0.84
4106.00,0.84
4104.00,0.83
4102.00,0.83
4100.00,0.83
4098.00,0.83
4096.00,0.83
4094.00,0.83
4092.00,0.83
4090.00,0.83
4088.00,0.83
4086.00,0.83
4084.00,0.83
4082.00,0.83
4080.00,0.83
4078.00,0.83
4076.00,0.83
4074.00,0.83
4072.00,0.82
4070.00,0.82
4068.00,0.82
4066.00,0.82
4064.00,0.82
4062.00,0.82
4060.00,0.83
4058.00,0.83
4056.00,0.83
4054.00,0.83
4052.00,0.83
4050.00,0.83
4048.00,0.83
4046.00,0.83
4044.00,0.83
4042.00,0.83
4040.00,0.83
4038.00,0.83
4036.00,0.83
4034.00,0.83
4032.00,0.83
4030.00,0.83
4028.00,0.83
4026.00,0.83
4024.00,0.83
4022.00,0.84
4020.00,0.84
4018.00,0.84
4016.00,0.84
4014.00,0.84
4012.00,0.84
4010.00,0.84
4008.00,0.84
4006.00,0.84
4004.00,0.84
4002.00,0.84
4000.00,0.84
