创建为新数据集,样品 1571 用户 Administrator 日期 星期日, 三月 12 2017
cm-1,%T
10000.00,0.90
9998.00,0.90
9996.00,0.89
9994.00,0.88
9992.00,0.87
9990.00,0.87
9988.00,0.87
9986.00,0.87
9984.00,0.86
9982.00,0.87
9980.00,0.87
9978.00,0.87
9976.00,0.87
9974.00,0.87
9972.00,0.87
9970.00,0.88
9968.00,0.87
9966.00,0.87
9964.00,0.87
9962.00,0.87
9960.00,0.86
9958.00,0.86
9956.00,0.86
9954.00,0.85
9952.00,0.85
9950.00,0.85
9948.00,0.85
9946.00,0.84
9944.00,0.84
9942.00,0.84
9940.00,0.84
9938.00,0.84
9936.00,0.84
9934.00,0.85
9932.00,0.85
9930.00,0.85
9928.00,0.85
9926.00,0.85
9924.00,0.85
9922.00,0.85
9920.00,0.85
9918.00,0.85
9916.00,0.86
9914.00,0.86
9912.00,0.86
9910.00,0.87
9908.00,0.87
9906.00,0.87
9904.00,0.87
9902.00,0.86
9900.00,0.86
9898.00,0.86
9896.00,0.85
9894.00,0.85
9892.00,0.85
9890.00,0.85
9888.00,0.84
9886.00,0.84
9884.00,0.84
9882.00,0.84
9880.00,0.83
9878.00,0.83
9876.00,0.82
9874.00,0.82
9872.00,0.82
9870.00,0.83
9868.00,0.83
9866.00,0.83
9864.00,0.84
9862.00,0.84
9860.00,0.84
9858.00,0.84
9856.00,0.84
9854.00,0.84
9852.00,0.84
9850.00,0.84
9848.00,0.84
9846.00,0.84
9844.00,0.85
9842.00,0.85
9840.00,0.86
9838.00,0.86
9836.00,0.86
9834.00,0.86
9832.00,0.86
9830.00,0.86
9828.00,0.86
9826.00,0.86
9824.00,0.86
9822.00,0.87
9820.00,0.87
9818.00,0.87
9816.00,0.88
9814.00,0.87
9812.00,0.87
9810.00,0.87
9808.00,0.87
9806.00,0.86
9804.00,0.86
9802.00,0.85
9800.00,0.85
9798.00,0.84
9796.00,0.83
9794.00,0.83
9792.00,0.82
9790.00,0.82
9788.00,0.82
9786.00,0.83
9784.00,0.83
9782.00,0.83
9780.00,0.84
9778.00,0.84
9776.00,0.84
9774.00,0.84
9772.00,0.84
9770.00,0.84
9768.00,0.84
9766.00,0.84
9764.00,0.84
9762.00,0.84
9760.00,0.84
9758.00,0.84
9756.00,0.84
9754.00,0.84
9752.00,0.84
9750.00,0.84
9748.00,0.84
9746.00,0.84
9744.00,0.84
9742.00,0.84
9740.00,0.84
9738.00,0.84
9736.00,0.84
9734.00,0.84
9732.00,0.85
9730.00,0.85
9728.00,0.85
9726.00,0.85
9724.00,0.84
9722.00,0.84
9720.00,0.83
9718.00,0.82
9716.00,0.82
9714.00,0.81
9712.00,0.81
9710.00,0.81
9708.00,0.81
9706.00,0.82
9704.00,0.82
9702.00,0.82
9700.00,0.82
9698.00,0.82
9696.00,0.82
9694.00,0.82
9692.00,0.82
9690.00,0.82
9688.00,0.82
9686.00,0.82
9684.00,0.83
9682.00,0.83
9680.00,0.84
9678.00,0.84
9676.00,0.84
9674.00,0.85
9672.00,0.85
9670.00,0.85
9668.00,0.85
9666.00,0.84
9664.00,0.84
9662.00,0.83
9660.00,0.83
9658.00,0.82
9656.00,0.82
9654.00,0.82
9652.00,0.82
9650.00,0.82
9648.00,0.83
9646.00,0.83
9644.00,0.84
9642.00,0.85
9640.00,0.85
9638.00,0.86
9636.00,0.86
9634.00,0.86
9632.00,0.86
9630.00,0.86
9628.00,0.86
9626.00,0.86
9624.00,0.85
9622.00,0.85
9620.00,0.85
9618.00,0.85
9616.00,0.85
9614.00,0.85
9612.00,0.85
9610.00,0.85
9608.00,0.85
9606.00,0.85
9604.00,0.84
9602.00,0.83
9600.00,0.83
9598.00,0.82
9596.00,0.81
9594.00,0.81
9592.00,0.81
9590.00,0.81
9588.00,0.82
9586.00,0.82
9584.00,0.83
9582.00,0.83
9580.00,0.84
9578.00,0.84
9576.00,0.85
9574.00,0.85
9572.00,0.85
9570.00,0.85
9568.00,0.85
9566.00,0.85
9564.00,0.84
9562.00,0.84
9560.00,0.84
9558.00,0.84
9556.00,0.84
9554.00,0.84
9552.00,0.84
9550.00,0.84
9548.00,0.84
9546.00,0.84
9544.00,0.84
9542.00,0.84
9540.00,0.84
9538.00,0.84
9536.00,0.84
9534.00,0.84
9532.00,0.84
9530.00,0.84
9528.00,0.84
9526.00,0.85
9524.00,0.85
9522.00,0.85
9520.00,0.85
9518.00,0.85
9516.00,0.85
9514.00,0.86
9512.00,0.86
9510.00,0.86
9508.00,0.86
9506.00,0.86
9504.00,0.86
9502.00,0.86
9500.00,0.85
9498.00,0.85
9496.00,0.85
9494.00,0.85
9492.00,0.84
9490.00,0.84
9488.00,0.84
9486.00,0.84
9484.00,0.84
9482.00,0.84
9480.00,0.84
9478.00,0.84
9476.00,0.84
9474.00,0.84
9472.00,0.83
9470.00,0.83
9468.00,0.83
9466.00,0.83
9464.00,0.84
9462.00,0.84
9460.00,0.84
9458.00,0.84
9456.00,0.84
9454.00,0.84
9452.00,0.85
9450.00,0.85
9448.00,0.85
9446.00,0.85
9444.00,0.85
9442.00,0.85
9440.00,0.85
9438.00,0.85
9436.00,0.85
9434.00,0.85
9432.00,0.85
9430.00,0.85
9428.00,0.85
9426.00,0.85
9424.00,0.84
9422.00,0.84
9420.00,0.84
9418.00,0.83
9416.00,0.83
9414.00,0.83
9412.00,0.83
9410.00,0.83
9408.00,0.83
9406.00,0.84
9404.00,0.84
9402.00,0.84
9400.00,0.85
9398.00,0.85
9396.00,0.85
9394.00,0.85
9392.00,0.85
9390.00,0.85
9388.00,0.85
9386.00,0.85
9384.00,0.85
9382.00,0.85
9380.00,0.85
9378.00,0.85
9376.00,0.85
9374.00,0.85
9372.00,0.85
9370.00,0.85
9368.00,0.85
9366.00,0.85
9364.00,0.85
9362.00,0.84
9360.00,0.84
9358.00,0.84
9356.00,0.84
9354.00,0.84
9352.00,0.83
9350.00,0.83
9348.00,0.84
9346.00,0.84
9344.00,0.84
9342.00,0.85
9340.00,0.85
9338.00,0.85
9336.00,0.86
9334.00,0.86
9332.00,0.86
9330.00,0.86
9328.00,0.86
9326.00,0.86
9324.00,0.86
9322.00,0.86
9320.00,0.86
9318.00,0.86
9316.00,0.85
9314.00,0.85
9312.00,0.85
9310.00,0.85
9308.00,0.85
9306.00,0.85
9304.00,0.85
9302.00,0.85
9300.00,0.85
9298.00,0.84
9296.00,0.84
9294.00,0.84
9292.00,0.83
9290.00,0.83
9288.00,0.83
9286.00,0.83
9284.00,0.84
9282.00,0.84
9280.00,0.85
9278.00,0.85
9276.00,0.86
9274.00,0.86
9272.00,0.87
9270.00,0.87
9268.00,0.87
9266.00,0.87
9264.00,0.87
9262.00,0.87
9260.00,0.87
9258.00,0.87
9256.00,0.87
9254.00,0.86
9252.00,0.86
9250.00,0.86
9248.00,0.85
9246.00,0.85
9244.00,0.85
9242.00,0.85
9240.00,0.85
9238.00,0.85
9236.00,0.84
9234.00,0.84
9232.00,0.84
9230.00,0.84
9228.00,0.84
9226.00,0.84
9224.00,0.84
9222.00,0.84
9220.00,0.84
9218.00,0.84
9216.00,0.84
9214.00,0.84
9212.00,0.84
9210.00,0.84
9208.00,0.84
9206.00,0.84
9204.00,0.84
9202.00,0.84
9200.00,0.84
9198.00,0.84
9196.00,0.84
9194.00,0.84
9192.00,0.84
9190.00,0.84
9188.00,0.84
9186.00,0.84
9184.00,0.84
9182.00,0.84
9180.00,0.84
9178.00,0.84
9176.00,0.84
9174.00,0.83
9172.00,0.83
9170.00,0.83
9168.00,0.83
9166.00,0.83
9164.00,0.83
9162.00,0.84
9160.00,0.84
9158.00,0.85
9156.00,0.85
9154.00,0.85
9152.00,0.85
9150.00,0.85
9148.00,0.85
9146.00,0.85
9144.00,0.85
9142.00,0.85
9140.00,0.85
9138.00,0.85
9136.00,0.86
9134.00,0.86
9132.00,0.86
9130.00,0.86
9128.00,0.86
9126.00,0.86
9124.00,0.86
9122.00,0.86
9120.00,0.86
9118.00,0.86
9116.00,0.86
9114.00,0.86
9112.00,0.86
9110.00,0.86
9108.00,0.86
9106.00,0.86
9104.00,0.86
9102.00,0.86
9100.00,0.86
9098.00,0.85
9096.00,0.85
9094.00,0.84
9092.00,0.84
9090.00,0.84
9088.00,0.84
9086.00,0.84
9084.00,0.84
9082.00,0.84
9080.00,0.84
9078.00,0.84
9076.00,0.85
9074.00,0.85
9072.00,0.85
9070.00,0.85
9068.00,0.86
9066.00,0.86
9064.00,0.86
9062.00,0.86
9060.00,0.86
9058.00,0.86
9056.00,0.86
9054.00,0.86
9052.00,0.85
9050.00,0.85
9048.00,0.85
9046.00,0.85
9044.00,0.85
9042.00,0.84
9040.00,0.84
9038.00,0.84
9036.00,0.84
9034.00,0.84
9032.00,0.84
9030.00,0.84
9028.00,0.84
9026.00,0.84
9024.00,0.84
9022.00,0.84
9020.00,0.84
9018.00,0.84
9016.00,0.84
9014.00,0.84
9012.00,0.84
9010.00,0.84
9008.00,0.84
9006.00,0.84
9004.00,0.84
9002.00,0.84
9000.00,0.84
8998.00,0.84
8996.00,0.84
8994.00,0.84
8992.00,0.84
8990.00,0.84
8988.00,0.84
8986.00,0.84
8984.00,0.83
8982.00,0.83
8980.00,0.83
8978.00,0.83
8976.00,0.83
8974.00,0.83
8972.00,0.82
8970.00,0.83
8968.00,0.83
8966.00,0.83
8964.00,0.83
8962.00,0.84
8960.00,0.84
8958.00,0.84
8956.00,0.84
8954.00,0.84
8952.00,0.84
8950.00,0.84
8948.00,0.84
8946.00,0.84
8944.00,0.83
8942.00,0.83
8940.00,0.83
8938.00,0.83
8936.00,0.83
8934.00,0.83
8932.00,0.83
8930.00,0.83
8928.00,0.83
8926.00,0.83
8924.00,0.83
8922.00,0.83
8920.00,0.83
8918.00,0.84
8916.00,0.84
8914.00,0.84
8912.00,0.84
8910.00,0.84
8908.00,0.84
8906.00,0.84
8904.00,0.84
8902.00,0.84
8900.00,0.84
8898.00,0.84
8896.00,0.84
8894.00,0.84
8892.00,0.84
8890.00,0.84
8888.00,0.84
8886.00,0.84
8884.00,0.85
8882.00,0.85
8880.00,0.85
8878.00,0.85
8876.00,0.85
8874.00,0.85
8872.00,0.85
8870.00,0.85
8868.00,0.85
8866.00,0.85
8864.00,0.85
8862.00,0.85
8860.00,0.85
8858.00,0.86
8856.00,0.86
8854.00,0.86
8852.00,0.86
8850.00,0.86
8848.00,0.86
8846.00,0.86
8844.00,0.86
8842.00,0.85
8840.00,0.85
8838.00,0.85
8836.00,0.85
8834.00,0.85
8832.00,0.85
8830.00,0.85
8828.00,0.85
8826.00,0.85
8824.00,0.85
8822.00,0.85
8820.00,0.85
8818.00,0.85
8816.00,0.85
8814.00,0.85
8812.00,0.85
8810.00,0.85
8808.00,0.85
8806.00,0.85
8804.00,0.85
8802.00,0.85
8800.00,0.84
8798.00,0.84
8796.00,0.85
8794.00,0.85
8792.00,0.85
8790.00,0.85
8788.00,0.85
8786.00,0.85
8784.00,0.85
8782.00,0.84
8780.00,0.84
8778.00,0.84
8776.00,0.84
8774.00,0.84
8772.00,0.84
8770.00,0.84
8768.00,0.84
8766.00,0.85
8764.00,0.85
8762.00,0.85
8760.00,0.85
8758.00,0.85
8756.00,0.85
8754.00,0.85
8752.00,0.85
8750.00,0.84
8748.00,0.84
8746.00,0.84
8744.00,0.84
8742.00,0.83
8740.00,0.83
8738.00,0.83
8736.00,0.84
8734.00,0.84
8732.00,0.84
8730.00,0.84
8728.00,0.84
8726.00,0.84
8724.00,0.85
8722.00,0.85
8720.00,0.85
8718.00,0.85
8716.00,0.85
8714.00,0.85
8712.00,0.85
8710.00,0.85
8708.00,0.85
8706.00,0.85
8704.00,0.85
8702.00,0.84
8700.00,0.84
8698.00,0.84
8696.00,0.84
8694.00,0.83
8692.00,0.83
8690.00,0.83
8688.00,0.83
8686.00,0.82
8684.00,0.82
8682.00,0.82
8680.00,0.82
8678.00,0.82
8676.00,0.81
8674.00,0.81
8672.00,0.82
8670.00,0.82
8668.00,0.82
8666.00,0.83
8664.00,0.83
8662.00,0.84
8660.00,0.84
8658.00,0.85
8656.00,0.85
8654.00,0.85
8652.00,0.85
8650.00,0.84
8648.00,0.84
8646.00,0.84
8644.00,0.84
8642.00,0.84
8640.00,0.84
8638.00,0.84
8636.00,0.84
8634.00,0.84
8632.00,0.84
8630.00,0.85
8628.00,0.85
8626.00,0.85
8624.00,0.86
8622.00,0.86
8620.00,0.86
8618.00,0.86
8616.00,0.86
8614.00,0.86
8612.00,0.86
8610.00,0.86
8608.00,0.85
8606.00,0.85
8604.00,0.85
8602.00,0.85
8600.00,0.85
8598.00,0.85
8596.00,0.85
8594.00,0.85
8592.00,0.85
8590.00,0.85
8588.00,0.85
8586.00,0.85
8584.00,0.85
8582.00,0.84
8580.00,0.84
8578.00,0.84
8576.00,0.84
8574.00,0.84
8572.00,0.84
8570.00,0.83
8568.00,0.83
8566.00,0.83
8564.00,0.83
8562.00,0.83
8560.00,0.83
8558.00,0.83
8556.00,0.83
8554.00,0.83
8552.00,0.83
8550.00,0.83
8548.00,0.83
8546.00,0.83
8544.00,0.83
8542.00,0.83
8540.00,0.83
8538.00,0.83
8536.00,0.83
8534.00,0.83
8532.00,0.83
8530.00,0.83
8528.00,0.83
8526.00,0.84
8524.00,0.84
8522.00,0.84
8520.00,0.84
8518.00,0.84
8516.00,0.84
8514.00,0.84
8512.00,0.84
8510.00,0.85
8508.00,0.85
8506.00,0.85
8504.00,0.85
8502.00,0.85
8500.00,0.85
8498.00,0.84
8496.00,0.84
8494.00,0.84
8492.00,0.84
8490.00,0.84
8488.00,0.84
8486.00,0.84
8484.00,0.84
8482.00,0.84
8480.00,0.84
8478.00,0.84
8476.00,0.83
8474.00,0.83
8472.00,0.83
8470.00,0.83
8468.00,0.82
8466.00,0.82
8464.00,0.82
8462.00,0.82
8460.00,0.82
8458.00,0.82
8456.00,0.81
8454.00,0.81
8452.00,0.81
8450.00,0.81
8448.00,0.81
8446.00,0.81
8444.00,0.82
8442.00,0.82
8440.00,0.82
8438.00,0.82
8436.00,0.83
8434.00,0.83
8432.00,0.83
8430.00,0.83
8428.00,0.83
8426.00,0.83
8424.00,0.84
8422.00,0.84
8420.00,0.84
8418.00,0.84
8416.00,0.84
8414.00,0.84
8412.00,0.84
8410.00,0.84
8408.00,0.84
8406.00,0.84
8404.00,0.84
8402.00,0.84
8400.00,0.84
8398.00,0.84
8396.00,0.84
8394.00,0.84
8392.00,0.83
8390.00,0.83
8388.00,0.83
8386.00,0.83
8384.00,0.83
8382.00,0.83
8380.00,0.83
8378.00,0.84
8376.00,0.84
8374.00,0.84
8372.00,0.84
8370.00,0.84
8368.00,0.84
8366.00,0.84
8364.00,0.84
8362.00,0.84
8360.00,0.84
8358.00,0.84
8356.00,0.84
8354.00,0.84
8352.00,0.84
8350.00,0.84
8348.00,0.84
8346.00,0.84
8344.00,0.84
8342.00,0.84
8340.00,0.84
8338.00,0.84
8336.00,0.84
8334.00,0.84
8332.00,0.84
8330.00,0.85
8328.00,0.85
8326.00,0.85
8324.00,0.85
8322.00,0.85
8320.00,0.85
8318.00,0.85
8316.00,0.85
8314.00,0.85
8312.00,0.84
8310.00,0.84
8308.00,0.84
8306.00,0.84
8304.00,0.84
8302.00,0.84
8300.00,0.84
8298.00,0.84
8296.00,0.83
8294.00,0.83
8292.00,0.83
8290.00,0.83
8288.00,0.83
8286.00,0.83
8284.00,0.83
8282.00,0.83
8280.00,0.83
8278.00,0.83
8276.00,0.83
8274.00,0.83
8272.00,0.83
8270.00,0.83
8268.00,0.83
8266.00,0.83
8264.00,0.83
8262.00,0.83
8260.00,0.83
8258.00,0.83
8256.00,0.84
8254.00,0.84
8252.00,0.84
8250.00,0.84
8248.00,0.84
8246.00,0.84
8244.00,0.84
8242.00,0.84
8240.00,0.83
8238.00,0.83
8236.00,0.83
8234.00,0.83
8232.00,0.83
8230.00,0.83
8228.00,0.83
8226.00,0.83
8224.00,0.83
8222.00,0.84
8220.00,0.84
8218.00,0.84
8216.00,0.84
8214.00,0.84
8212.00,0.84
8210.00,0.84
8208.00,0.84
8206.00,0.84
8204.00,0.84
8202.00,0.84
8200.00,0.84
8198.00,0.84
8196.00,0.84
8194.00,0.84
8192.00,0.84
8190.00,0.84
8188.00,0.84
8186.00,0.84
8184.00,0.84
8182.00,0.84
8180.00,0.84
8178.00,0.84
8176.00,0.84
8174.00,0.84
8172.00,0.84
8170.00,0.84
8168.00,0.84
8166.00,0.84
8164.00,0.84
8162.00,0.84
8160.00,0.84
8158.00,0.84
8156.00,0.84
8154.00,0.84
8152.00,0.85
8150.00,0.85
8148.00,0.85
8146.00,0.86
8144.00,0.86
8142.00,0.86
8140.00,0.85
8138.00,0.85
8136.00,0.85
8134.00,0.85
8132.00,0.85
8130.00,0.84
8128.00,0.84
8126.00,0.84
8124.00,0.84
8122.00,0.84
8120.00,0.84
8118.00,0.84
8116.00,0.84
8114.00,0.84
8112.00,0.84
8110.00,0.84
8108.00,0.84
8106.00,0.84
8104.00,0.84
8102.00,0.84
8100.00,0.84
8098.00,0.84
8096.00,0.84
8094.00,0.84
8092.00,0.84
8090.00,0.84
8088.00,0.84
8086.00,0.85
8084.00,0.85
8082.00,0.85
8080.00,0.85
8078.00,0.85
8076.00,0.86
8074.00,0.86
8072.00,0.86
8070.00,0.86
8068.00,0.86
8066.00,0.86
8064.00,0.86
8062.00,0.86
8060.00,0.86
8058.00,0.85
8056.00,0.85
8054.00,0.85
8052.00,0.85
8050.00,0.85
8048.00,0.85
8046.00,0.85
8044.00,0.85
8042.00,0.85
8040.00,0.85
8038.00,0.85
8036.00,0.85
8034.00,0.85
8032.00,0.85
8030.00,0.85
8028.00,0.85
8026.00,0.85
8024.00,0.85
8022.00,0.85
8020.00,0.85
8018.00,0.85
8016.00,0.85
8014.00,0.85
8012.00,0.84
8010.00,0.84
8008.00,0.84
8006.00,0.85
8004.00,0.85
8002.00,0.85
8000.00,0.85
7998.00,0.85
7996.00,0.85
7994.00,0.86
7992.00,0.86
7990.00,0.86
7988.00,0.86
7986.00,0.85
7984.00,0.85
7982.00,0.85
7980.00,0.85
7978.00,0.84
7976.00,0.84
7974.00,0.84
7972.00,0.84
7970.00,0.84
7968.00,0.84
7966.00,0.84
7964.00,0.84
7962.00,0.84
7960.00,0.84
7958.00,0.85
7956.00,0.85
7954.00,0.85
7952.00,0.85
7950.00,0.85
7948.00,0.85
7946.00,0.85
7944.00,0.85
7942.00,0.85
7940.00,0.85
7938.00,0.84
7936.00,0.84
7934.00,0.84
7932.00,0.84
7930.00,0.84
7928.00,0.84
7926.00,0.85
7924.00,0.85
7922.00,0.85
7920.00,0.85
7918.00,0.85
7916.00,0.85
7914.00,0.85
7912.00,0.85
7910.00,0.85
7908.00,0.85
7906.00,0.85
7904.00,0.84
7902.00,0.84
7900.00,0.84
7898.00,0.84
7896.00,0.84
7894.00,0.84
7892.00,0.85
7890.00,0.85
7888.00,0.85
7886.00,0.85
7884.00,0.85
7882.00,0.85
7880.00,0.85
7878.00,0.85
7876.00,0.85
7874.00,0.85
7872.00,0.85
7870.00,0.85
7868.00,0.85
7866.00,0.85
7864.00,0.85
7862.00,0.85
7860.00,0.85
7858.00,0.85
7856.00,0.85
7854.00,0.85
7852.00,0.85
7850.00,0.85
7848.00,0.85
7846.00,0.85
7844.00,0.85
7842.00,0.85
7840.00,0.86
7838.00,0.86
7836.00,0.86
7834.00,0.86
7832.00,0.86
7830.00,0.86
7828.00,0.86
7826.00,0.86
7824.00,0.86
7822.00,0.86
7820.00,0.86
7818.00,0.86
7816.00,0.86
7814.00,0.86
7812.00,0.86
7810.00,0.86
7808.00,0.86
7806.00,0.86
7804.00,0.86
7802.00,0.86
7800.00,0.86
7798.00,0.86
7796.00,0.86
7794.00,0.86
7792.00,0.86
7790.00,0.86
7788.00,0.86
7786.00,0.86
7784.00,0.85
7782.00,0.85
7780.00,0.85
7778.00,0.85
7776.00,0.85
7774.00,0.86
7772.00,0.86
7770.00,0.86
7768.00,0.86
7766.00,0.86
7764.00,0.86
7762.00,0.86
7760.00,0.86
7758.00,0.86
7756.00,0.86
7754.00,0.87
7752.00,0.87
7750.00,0.87
7748.00,0.87
7746.00,0.87
7744.00,0.87
7742.00,0.87
7740.00,0.86
7738.00,0.86
7736.00,0.86
7734.00,0.85
7732.00,0.85
7730.00,0.85
7728.00,0.85
7726.00,0.85
7724.00,0.86
7722.00,0.86
7720.00,0.86
7718.00,0.86
7716.00,0.86
7714.00,0.87
7712.00,0.87
7710.00,0.87
7708.00,0.87
7706.00,0.87
7704.00,0.87
7702.00,0.87
7700.00,0.86
7698.00,0.86
7696.00,0.86
7694.00,0.86
7692.00,0.86
7690.00,0.86
7688.00,0.86
7686.00,0.86
7684.00,0.86
7682.00,0.86
7680.00,0.86
7678.00,0.86
7676.00,0.86
7674.00,0.86
7672.00,0.86
7670.00,0.86
7668.00,0.86
7666.00,0.86
7664.00,0.86
7662.00,0.86
7660.00,0.86
7658.00,0.86
7656.00,0.86
7654.00,0.86
7652.00,0.86
7650.00,0.86
7648.00,0.87
7646.00,0.87
7644.00,0.87
7642.00,0.87
7640.00,0.87
7638.00,0.87
7636.00,0.87
7634.00,0.87
7632.00,0.87
7630.00,0.87
7628.00,0.87
7626.00,0.87
7624.00,0.86
7622.00,0.86
7620.00,0.86
7618.00,0.86
7616.00,0.86
7614.00,0.86
7612.00,0.86
7610.00,0.86
7608.00,0.86
7606.00,0.86
7604.00,0.85
7602.00,0.85
7600.00,0.85
7598.00,0.85
7596.00,0.85
7594.00,0.85
7592.00,0.85
7590.00,0.85
7588.00,0.85
7586.00,0.85
7584.00,0.85
7582.00,0.85
7580.00,0.85
7578.00,0.86
7576.00,0.86
7574.00,0.86
7572.00,0.86
7570.00,0.86
7568.00,0.86
7566.00,0.86
7564.00,0.86
7562.00,0.85
7560.00,0.85
7558.00,0.85
7556.00,0.85
7554.00,0.85
7552.00,0.85
7550.00,0.85
7548.00,0.86
7546.00,0.86
7544.00,0.86
7542.00,0.86
7540.00,0.86
7538.00,0.86
7536.00,0.86
7534.00,0.86
7532.00,0.86
7530.00,0.86
7528.00,0.86
7526.00,0.86
7524.00,0.86
7522.00,0.86
7520.00,0.86
7518.00,0.86
7516.00,0.86
7514.00,0.86
7512.00,0.86
7510.00,0.86
7508.00,0.86
7506.00,0.86
7504.00,0.86
7502.00,0.86
7500.00,0.86
7498.00,0.86
7496.00,0.86
7494.00,0.86
7492.00,0.86
7490.00,0.86
7488.00,0.86
7486.00,0.86
7484.00,0.86
7482.00,0.86
7480.00,0.86
7478.00,0.86
7476.00,0.86
7474.00,0.85
7472.00,0.85
7470.00,0.85
7468.00,0.85
7466.00,0.85
7464.00,0.85
7462.00,0.85
7460.00,0.85
7458.00,0.85
7456.00,0.85
7454.00,0.85
7452.00,0.86
7450.00,0.86
7448.00,0.86
7446.00,0.86
7444.00,0.86
7442.00,0.86
7440.00,0.86
7438.00,0.86
7436.00,0.86
7434.00,0.86
7432.00,0.86
7430.00,0.86
7428.00,0.85
7426.00,0.85
7424.00,0.85
7422.00,0.85
7420.00,0.85
7418.00,0.85
7416.00,0.85
7414.00,0.85
7412.00,0.85
7410.00,0.85
7408.00,0.85
7406.00,0.85
7404.00,0.85
7402.00,0.85
7400.00,0.85
7398.00,0.85
7396.00,0.85
7394.00,0.84
7392.00,0.84
7390.00,0.84
7388.00,0.84
7386.00,0.85
7384.00,0.85
7382.00,0.85
7380.00,0.85
7378.00,0.85
7376.00,0.84
7374.00,0.84
7372.00,0.84
7370.00,0.84
7368.00,0.84
7366.00,0.84
7364.00,0.84
7362.00,0.84
7360.00,0.84
7358.00,0.84
7356.00,0.84
7354.00,0.85
7352.00,0.85
7350.00,0.85
7348.00,0.85
7346.00,0.84
7344.00,0.84
7342.00,0.84
7340.00,0.84
7338.00,0.84
7336.00,0.83
7334.00,0.83
7332.00,0.84
7330.00,0.84
7328.00,0.84
7326.00,0.84
7324.00,0.84
7322.00,0.84
7320.00,0.84
7318.00,0.84
7316.00,0.84
7314.00,0.84
7312.00,0.84
7310.00,0.84
7308.00,0.84
7306.00,0.84
7304.00,0.84
7302.00,0.84
7300.00,0.84
7298.00,0.84
7296.00,0.83
7294.00,0.83
7292.00,0.83
7290.00,0.83
7288.00,0.84
7286.00,0.84
7284.00,0.84
7282.00,0.84
7280.00,0.84
7278.00,0.84
7276.00,0.84
7274.00,0.84
7272.00,0.83
7270.00,0.83
7268.00,0.83
7266.00,0.83
7264.00,0.83
7262.00,0.83
7260.00,0.83
7258.00,0.83
7256.00,0.83
7254.00,0.84
7252.00,0.84
7250.00,0.84
7248.00,0.84
7246.00,0.84
7244.00,0.84
7242.00,0.84
7240.00,0.84
7238.00,0.84
7236.00,0.83
7234.00,0.83
7232.00,0.83
7230.00,0.83
7228.00,0.83
7226.00,0.83
7224.00,0.83
7222.00,0.82
7220.00,0.82
7218.00,0.82
7216.00,0.82
7214.00,0.82
7212.00,0.82
7210.00,0.82
7208.00,0.82
7206.00,0.82
7204.00,0.82
7202.00,0.82
7200.00,0.81
7198.00,0.81
7196.00,0.81
7194.00,0.81
7192.00,0.80
7190.00,0.80
7188.00,0.80
7186.00,0.80
7184.00,0.80
7182.00,0.80
7180.00,0.80
7178.00,0.80
7176.00,0.80
7174.00,0.80
7172.00,0.80
7170.00,0.80
7168.00,0.80
7166.00,0.79
7164.00,0.79
7162.00,0.79
7160.00,0.79
7158.00,0.79
7156.00,0.79
7154.00,0.79
7152.00,0.79
7150.00,0.79
7148.00,0.79
7146.00,0.79
7144.00,0.79
7142.00,0.79
7140.00,0.79
7138.00,0.79
7136.00,0.78
7134.00,0.78
7132.00,0.78
7130.00,0.78
7128.00,0.78
7126.00,0.78
7124.00,0.78
7122.00,0.78
7120.00,0.78
7118.00,0.78
7116.00,0.78
7114.00,0.77
7112.00,0.77
7110.00,0.77
7108.00,0.77
7106.00,0.77
7104.00,0.77
7102.00,0.77
7100.00,0.78
7098.00,0.77
7096.00,0.77
7094.00,0.77
7092.00,0.77
7090.00,0.77
7088.00,0.77
7086.00,0.77
7084.00,0.77
7082.00,0.76
7080.00,0.76
7078.00,0.76
7076.00,0.77
7074.00,0.77
7072.00,0.77
7070.00,0.77
7068.00,0.77
7066.00,0.77
7064.00,0.77
7062.00,0.77
7060.00,0.77
7058.00,0.77
7056.00,0.77
7054.00,0.77
7052.00,0.77
7050.00,0.77
7048.00,0.77
7046.00,0.76
7044.00,0.76
7042.00,0.76
7040.00,0.76
7038.00,0.76
7036.00,0.76
7034.00,0.76
7032.00,0.76
7030.00,0.76
7028.00,0.76
7026.00,0.76
7024.00,0.76
7022.00,0.76
7020.00,0.75
7018.00,0.75
7016.00,0.75
7014.00,0.75
7012.00,0.75
7010.00,0.75
7008.00,0.75
7006.00,0.75
7004.00,0.75
7002.00,0.75
7000.00,0.75
6998.00,0.75
6996.00,0.75
6994.00,0.75
6992.00,0.75
6990.00,0.75
6988.00,0.75
6986.00,0.75
6984.00,0.75
6982.00,0.74
6980.00,0.74
6978.00,0.74
6976.00,0.74
6974.00,0.74
6972.00,0.74
6970.00,0.74
6968.00,0.74
6966.00,0.74
6964.00,0.74
6962.00,0.74
6960.00,0.74
6958.00,0.74
6956.00,0.74
6954.00,0.74
6952.00,0.74
6950.00,0.74
6948.00,0.74
6946.00,0.74
6944.00,0.74
6942.00,0.74
6940.00,0.74
6938.00,0.74
6936.00,0.74
6934.00,0.74
6932.00,0.74
6930.00,0.74
6928.00,0.74
6926.00,0.74
6924.00,0.74
6922.00,0.74
6920.00,0.74
6918.00,0.74
6916.00,0.74
6914.00,0.74
6912.00,0.74
6910.00,0.74
6908.00,0.74
6906.00,0.74
6904.00,0.74
6902.00,0.74
6900.00,0.74
6898.00,0.74
6896.00,0.74
6894.00,0.74
6892.00,0.74
6890.00,0.74
6888.00,0.74
6886.00,0.74
6884.00,0.74
6882.00,0.74
6880.00,0.74
6878.00,0.74
6876.00,0.74
6874.00,0.74
6872.00,0.74
6870.00,0.74
6868.00,0.74
6866.00,0.74
6864.00,0.74
6862.00,0.74
6860.00,0.74
6858.00,0.74
6856.00,0.74
6854.00,0.74
6852.00,0.74
6850.00,0.74
6848.00,0.74
6846.00,0.74
6844.00,0.74
6842.00,0.74
6840.00,0.73
6838.00,0.73
6836.00,0.73
6834.00,0.73
6832.00,0.73
6830.00,0.74
6828.00,0.74
6826.00,0.74
6824.00,0.74
6822.00,0.74
6820.00,0.74
6818.00,0.74
6816.00,0.75
6814.00,0.75
6812.00,0.75
6810.00,0.75
6808.00,0.75
6806.00,0.75
6804.00,0.74
6802.00,0.74
6800.00,0.74
6798.00,0.74
6796.00,0.74
6794.00,0.74
6792.00,0.74
6790.00,0.74
6788.00,0.74
6786.00,0.74
6784.00,0.74
6782.00,0.74
6780.00,0.74
6778.00,0.74
6776.00,0.74
6774.00,0.74
6772.00,0.74
6770.00,0.74
6768.00,0.74
6766.00,0.75
6764.00,0.75
6762.00,0.75
6760.00,0.75
6758.00,0.75
6756.00,0.75
6754.00,0.75
6752.00,0.75
6750.00,0.75
6748.00,0.75
6746.00,0.75
6744.00,0.75
6742.00,0.75
6740.00,0.75
6738.00,0.75
6736.00,0.75
6734.00,0.75
6732.00,0.75
6730.00,0.75
6728.00,0.75
6726.00,0.75
6724.00,0.75
6722.00,0.75
6720.00,0.76
6718.00,0.76
6716.00,0.76
6714.00,0.76
6712.00,0.76
6710.00,0.76
6708.00,0.76
6706.00,0.76
6704.00,0.75
6702.00,0.75
6700.00,0.75
6698.00,0.75
6696.00,0.75
6694.00,0.75
6692.00,0.75
6690.00,0.75
6688.00,0.75
6686.00,0.75
6684.00,0.76
6682.00,0.76
6680.00,0.76
6678.00,0.76
6676.00,0.76
6674.00,0.76
6672.00,0.76
6670.00,0.76
6668.00,0.76
6666.00,0.76
6664.00,0.76
6662.00,0.76
6660.00,0.76
6658.00,0.76
6656.00,0.76
6654.00,0.76
6652.00,0.76
6650.00,0.76
6648.00,0.76
6646.00,0.77
6644.00,0.77
6642.00,0.77
6640.00,0.77
6638.00,0.77
6636.00,0.77
6634.00,0.77
6632.00,0.77
6630.00,0.77
6628.00,0.77
6626.00,0.77
6624.00,0.77
6622.00,0.77
6620.00,0.77
6618.00,0.77
6616.00,0.77
6614.00,0.77
6612.00,0.77
6610.00,0.76
6608.00,0.77
6606.00,0.77
6604.00,0.77
6602.00,0.77
6600.00,0.77
6598.00,0.77
6596.00,0.78
6594.00,0.78
6592.00,0.78
6590.00,0.78
6588.00,0.78
6586.00,0.78
6584.00,0.78
6582.00,0.78
6580.00,0.78
6578.00,0.78
6576.00,0.77
6574.00,0.77
6572.00,0.77
6570.00,0.77
6568.00,0.77
6566.00,0.77
6564.00,0.77
6562.00,0.77
6560.00,0.78
6558.00,0.78
6556.00,0.78
6554.00,0.78
6552.00,0.78
6550.00,0.78
6548.00,0.78
6546.00,0.78
6544.00,0.78
6542.00,0.78
6540.00,0.78
6538.00,0.78
6536.00,0.78
6534.00,0.78
6532.00,0.78
6530.00,0.79
6528.00,0.79
6526.00,0.79
6524.00,0.79
6522.00,0.79
6520.00,0.79
6518.00,0.79
6516.00,0.79
6514.00,0.79
6512.00,0.79
6510.00,0.79
6508.00,0.78
6506.00,0.78
6504.00,0.78
6502.00,0.78
6500.00,0.78
6498.00,0.78
6496.00,0.78
6494.00,0.78
6492.00,0.78
6490.00,0.78
6488.00,0.78
6486.00,0.78
6484.00,0.78
6482.00,0.78
6480.00,0.78
6478.00,0.78
6476.00,0.79
6474.00,0.79
6472.00,0.79
6470.00,0.79
6468.00,0.79
6466.00,0.79
6464.00,0.79
6462.00,0.79
6460.00,0.79
6458.00,0.79
6456.00,0.79
6454.00,0.79
6452.00,0.79
6450.00,0.79
6448.00,0.79
6446.00,0.79
6444.00,0.79
6442.00,0.79
6440.00,0.78
6438.00,0.78
6436.00,0.78
6434.00,0.79
6432.00,0.79
6430.00,0.79
6428.00,0.79
6426.00,0.79
6424.00,0.79
6422.00,0.79
6420.00,0.79
6418.00,0.79
6416.00,0.79
6414.00,0.79
6412.00,0.80
6410.00,0.80
6408.00,0.80
6406.00,0.80
6404.00,0.80
6402.00,0.80
6400.00,0.80
6398.00,0.80
6396.00,0.80
6394.00,0.80
6392.00,0.80
6390.00,0.80
6388.00,0.80
6386.00,0.80
6384.00,0.80
6382.00,0.80
6380.00,0.80
6378.00,0.80
6376.00,0.80
6374.00,0.80
6372.00,0.80
6370.00,0.80
6368.00,0.80
6366.00,0.80
6364.00,0.80
6362.00,0.80
6360.00,0.80
6358.00,0.80
6356.00,0.80
6354.00,0.80
6352.00,0.80
6350.00,0.80
6348.00,0.79
6346.00,0.79
6344.00,0.79
6342.00,0.79
6340.00,0.80
6338.00,0.80
6336.00,0.80
6334.00,0.80
6332.00,0.80
6330.00,0.80
6328.00,0.80
6326.00,0.80
6324.00,0.80
6322.00,0.80
6320.00,0.80
6318.00,0.80
6316.00,0.80
6314.00,0.80
6312.00,0.80
6310.00,0.80
6308.00,0.80
6306.00,0.80
6304.00,0.80
6302.00,0.80
6300.00,0.80
6298.00,0.80
6296.00,0.81
6294.00,0.81
6292.00,0.81
6290.00,0.81
6288.00,0.81
6286.00,0.81
6284.00,0.81
6282.00,0.81
6280.00,0.81
6278.00,0.81
6276.00,0.81
6274.00,0.81
6272.00,0.81
6270.00,0.81
6268.00,0.81
6266.00,0.81
6264.00,0.81
6262.00,0.81
6260.00,0.81
6258.00,0.81
6256.00,0.81
6254.00,0.81
6252.00,0.81
6250.00,0.81
6248.00,0.81
6246.00,0.81
6244.00,0.81
6242.00,0.81
6240.00,0.81
6238.00,0.81
6236.00,0.81
6234.00,0.81
6232.00,0.81
6230.00,0.81
6228.00,0.81
6226.00,0.81
6224.00,0.81
6222.00,0.81
6220.00,0.81
6218.00,0.81
6216.00,0.81
6214.00,0.81
6212.00,0.81
6210.00,0.82
6208.00,0.82
6206.00,0.82
6204.00,0.82
6202.00,0.82
6200.00,0.82
6198.00,0.82
6196.00,0.82
6194.00,0.82
6192.00,0.82
6190.00,0.82
6188.00,0.82
6186.00,0.82
6184.00,0.83
6182.00,0.83
6180.00,0.83
6178.00,0.83
6176.00,0.83
6174.00,0.83
6172.00,0.83
6170.00,0.83
6168.00,0.83
6166.00,0.83
6164.00,0.83
6162.00,0.83
6160.00,0.83
6158.00,0.83
6156.00,0.83
6154.00,0.83
6152.00,0.83
6150.00,0.83
6148.00,0.83
6146.00,0.83
6144.00,0.83
6142.00,0.83
6140.00,0.83
6138.00,0.83
6136.00,0.83
6134.00,0.83
6132.00,0.83
6130.00,0.83
6128.00,0.83
6126.00,0.83
6124.00,0.83
6122.00,0.83
6120.00,0.83
6118.00,0.84
6116.00,0.84
6114.00,0.84
6112.00,0.84
6110.00,0.84
6108.00,0.84
6106.00,0.84
6104.00,0.84
6102.00,0.84
6100.00,0.84
6098.00,0.84
6096.00,0.84
6094.00,0.84
6092.00,0.84
6090.00,0.84
6088.00,0.84
6086.00,0.84
6084.00,0.84
6082.00,0.84
6080.00,0.84
6078.00,0.84
6076.00,0.84
6074.00,0.84
6072.00,0.84
6070.00,0.84
6068.00,0.84
6066.00,0.84
6064.00,0.84
6062.00,0.85
6060.00,0.85
6058.00,0.85
6056.00,0.85
6054.00,0.85
6052.00,0.85
6050.00,0.85
6048.00,0.85
6046.00,0.85
6044.00,0.85
6042.00,0.85
6040.00,0.85
6038.00,0.85
6036.00,0.85
6034.00,0.85
6032.00,0.85
6030.00,0.85
6028.00,0.85
6026.00,0.85
6024.00,0.85
6022.00,0.85
6020.00,0.85
6018.00,0.85
6016.00,0.85
6014.00,0.85
6012.00,0.85
6010.00,0.85
6008.00,0.85
6006.00,0.85
6004.00,0.85
6002.00,0.85
6000.00,0.85
5998.00,0.85
5996.00,0.84
5994.00,0.84
5992.00,0.84
5990.00,0.84
5988.00,0.84
5986.00,0.84
5984.00,0.84
5982.00,0.84
5980.00,0.84
5978.00,0.84
5976.00,0.84
5974.00,0.84
5972.00,0.84
5970.00,0.84
5968.00,0.84
5966.00,0.84
5964.00,0.83
5962.00,0.83
5960.00,0.83
5958.00,0.83
5956.00,0.83
5954.00,0.82
5952.00,0.82
5950.00,0.82
5948.00,0.82
5946.00,0.82
5944.00,0.82
5942.00,0.82
5940.00,0.82
5938.00,0.82
5936.00,0.82
5934.00,0.81
5932.00,0.81
5930.00,0.81
5928.00,0.81
5926.00,0.81
5924.00,0.81
5922.00,0.80
5920.00,0.80
5918.00,0.80
5916.00,0.80
5914.00,0.80
5912.00,0.80
5910.00,0.80
5908.00,0.80
5906.00,0.80
5904.00,0.80
5902.00,0.80
5900.00,0.80
5898.00,0.80
5896.00,0.80
5894.00,0.81
5892.00,0.81
5890.00,0.81
5888.00,0.81
5886.00,0.81
5884.00,0.81
5882.00,0.81
5880.00,0.81
5878.00,0.81
5876.00,0.81
5874.00,0.81
5872.00,0.81
5870.00,0.81
5868.00,0.81
5866.00,0.82
5864.00,0.82
5862.00,0.82
5860.00,0.82
5858.00,0.82
5856.00,0.82
5854.00,0.82
5852.00,0.82
5850.00,0.82
5848.00,0.82
5846.00,0.82
5844.00,0.82
5842.00,0.82
5840.00,0.82
5838.00,0.82
5836.00,0.82
5834.00,0.82
5832.00,0.82
5830.00,0.82
5828.00,0.82
5826.00,0.82
5824.00,0.82
5822.00,0.82
5820.00,0.82
5818.00,0.82
5816.00,0.82
5814.00,0.82
5812.00,0.82
5810.00,0.82
5808.00,0.82
5806.00,0.82
5804.00,0.82
5802.00,0.82
5800.00,0.82
5798.00,0.82
5796.00,0.82
5794.00,0.82
5792.00,0.82
5790.00,0.82
5788.00,0.82
5786.00,0.82
5784.00,0.81
5782.00,0.81
5780.00,0.81
5778.00,0.81
5776.00,0.81
5774.00,0.81
5772.00,0.81
5770.00,0.81
5768.00,0.81
5766.00,0.81
5764.00,0.82
5762.00,0.82
5760.00,0.82
5758.00,0.82
5756.00,0.82
5754.00,0.82
5752.00,0.82
5750.00,0.82
5748.00,0.82
5746.00,0.82
5744.00,0.83
5742.00,0.83
5740.00,0.83
5738.00,0.83
5736.00,0.83
5734.00,0.83
5732.00,0.83
5730.00,0.83
5728.00,0.83
5726.00,0.83
5724.00,0.84
5722.00,0.84
5720.00,0.84
5718.00,0.84
5716.00,0.84
5714.00,0.83
5712.00,0.83
5710.00,0.83
5708.00,0.83
5706.00,0.83
5704.00,0.83
5702.00,0.83
5700.00,0.83
5698.00,0.83
5696.00,0.83
5694.00,0.83
5692.00,0.83
5690.00,0.83
5688.00,0.83
5686.00,0.83
5684.00,0.83
5682.00,0.83
5680.00,0.83
5678.00,0.83
5676.00,0.83
5674.00,0.83
5672.00,0.83
5670.00,0.83
5668.00,0.83
5666.00,0.83
5664.00,0.83
5662.00,0.83
5660.00,0.83
5658.00,0.83
5656.00,0.83
5654.00,0.83
5652.00,0.83
5650.00,0.83
5648.00,0.84
5646.00,0.84
5644.00,0.84
5642.00,0.84
5640.00,0.84
5638.00,0.84
5636.00,0.84
5634.00,0.84
5632.00,0.84
5630.00,0.84
5628.00,0.84
5626.00,0.84
5624.00,0.84
5622.00,0.84
5620.00,0.84
5618.00,0.84
5616.00,0.84
5614.00,0.84
5612.00,0.84
5610.00,0.84
5608.00,0.85
5606.00,0.85
5604.00,0.85
5602.00,0.85
5600.00,0.85
5598.00,0.85
5596.00,0.85
5594.00,0.85
5592.00,0.85
5590.00,0.85
5588.00,0.85
5586.00,0.85
5584.00,0.85
5582.00,0.85
5580.00,0.85
5578.00,0.85
5576.00,0.85
5574.00,0.85
5572.00,0.85
5570.00,0.85
5568.00,0.86
5566.00,0.86
5564.00,0.86
5562.00,0.86
5560.00,0.86
5558.00,0.86
5556.00,0.86
5554.00,0.86
5552.00,0.86
5550.00,0.86
5548.00,0.86
5546.00,0.86
5544.00,0.86
5542.00,0.86
5540.00,0.86
5538.00,0.86
5536.00,0.86
5534.00,0.86
5532.00,0.86
5530.00,0.86
5528.00,0.86
5526.00,0.86
5524.00,0.86
5522.00,0.86
5520.00,0.86
5518.00,0.86
5516.00,0.86
5514.00,0.86
5512.00,0.86
5510.00,0.86
5508.00,0.86
5506.00,0.86
5504.00,0.86
5502.00,0.86
5500.00,0.86
5498.00,0.86
5496.00,0.86
5494.00,0.86
5492.00,0.86
5490.00,0.86
5488.00,0.86
5486.00,0.86
5484.00,0.86
5482.00,0.86
5480.00,0.86
5478.00,0.86
5476.00,0.86
5474.00,0.86
5472.00,0.86
5470.00,0.86
5468.00,0.86
5466.00,0.87
5464.00,0.87
5462.00,0.87
5460.00,0.87
5458.00,0.87
5456.00,0.87
5454.00,0.87
5452.00,0.87
5450.00,0.87
5448.00,0.87
5446.00,0.87
5444.00,0.87
5442.00,0.87
5440.00,0.87
5438.00,0.87
5436.00,0.87
5434.00,0.87
5432.00,0.87
5430.00,0.87
5428.00,0.87
5426.00,0.87
5424.00,0.87
5422.00,0.87
5420.00,0.87
5418.00,0.87
5416.00,0.87
5414.00,0.87
5412.00,0.87
5410.00,0.87
5408.00,0.87
5406.00,0.87
5404.00,0.87
5402.00,0.87
5400.00,0.87
5398.00,0.87
5396.00,0.87
5394.00,0.87
5392.00,0.87
5390.00,0.87
5388.00,0.87
5386.00,0.87
5384.00,0.87
5382.00,0.87
5380.00,0.87
5378.00,0.87
5376.00,0.87
5374.00,0.87
5372.00,0.87
5370.00,0.87
5368.00,0.87
5366.00,0.87
5364.00,0.87
5362.00,0.86
5360.00,0.86
5358.00,0.86
5356.00,0.86
5354.00,0.86
5352.00,0.86
5350.00,0.85
5348.00,0.85
5346.00,0.85
5344.00,0.85
5342.00,0.84
5340.00,0.84
5338.00,0.84
5336.00,0.84
5334.00,0.84
5332.00,0.83
5330.00,0.83
5328.00,0.83
5326.00,0.83
5324.00,0.83
5322.00,0.82
5320.00,0.82
5318.00,0.81
5316.00,0.81
5314.00,0.80
5312.00,0.80
5310.00,0.79
5308.00,0.79
5306.00,0.79
5304.00,0.78
5302.00,0.78
5300.00,0.77
5298.00,0.77
5296.00,0.77
5294.00,0.76
5292.00,0.76
5290.00,0.76
5288.00,0.75
5286.00,0.75
5284.00,0.75
5282.00,0.74
5280.00,0.74
5278.00,0.74
5276.00,0.74
5274.00,0.74
5272.00,0.73
5270.00,0.73
5268.00,0.73
5266.00,0.72
5264.00,0.72
5262.00,0.72
5260.00,0.71
5258.00,0.71
5256.00,0.71
5254.00,0.71
5252.00,0.70
5250.00,0.70
5248.00,0.70
5246.00,0.70
5244.00,0.70
5242.00,0.70
5240.00,0.69
5238.00,0.69
5236.00,0.69
5234.00,0.69
5232.00,0.69
5230.00,0.68
5228.00,0.68
5226.00,0.68
5224.00,0.68
5222.00,0.67
5220.00,0.67
5218.00,0.67
5216.00,0.67
5214.00,0.67
5212.00,0.67
5210.00,0.66
5208.00,0.66
5206.00,0.66
5204.00,0.66
5202.00,0.66
5200.00,0.66
5198.00,0.66
5196.00,0.66
5194.00,0.66
5192.00,0.66
5190.00,0.66
5188.00,0.66
5186.00,0.66
5184.00,0.66
5182.00,0.66
5180.00,0.66
5178.00,0.66
5176.00,0.66
5174.00,0.65
5172.00,0.65
5170.00,0.65
5168.00,0.65
5166.00,0.65
5164.00,0.65
5162.00,0.65
5160.00,0.65
5158.00,0.65
5156.00,0.66
5154.00,0.66
5152.00,0.66
5150.00,0.66
5148.00,0.66
5146.00,0.66
5144.00,0.66
5142.00,0.66
5140.00,0.67
5138.00,0.67
5136.00,0.67
5134.00,0.67
5132.00,0.67
5130.00,0.67
5128.00,0.67
5126.00,0.67
5124.00,0.67
5122.00,0.67
5120.00,0.67
5118.00,0.67
5116.00,0.68
5114.00,0.68
5112.00,0.68
5110.00,0.68
5108.00,0.68
5106.00,0.69
5104.00,0.69
5102.00,0.69
5100.00,0.69
5098.00,0.69
5096.00,0.69
5094.00,0.69
5092.00,0.69
5090.00,0.70
5088.00,0.70
5086.00,0.70
5084.00,0.70
5082.00,0.70
5080.00,0.70
5078.00,0.70
5076.00,0.70
5074.00,0.70
5072.00,0.71
5070.00,0.71
5068.00,0.71
5066.00,0.71
5064.00,0.71
5062.00,0.71
5060.00,0.71
5058.00,0.72
5056.00,0.72
5054.00,0.72
5052.00,0.72
5050.00,0.72
5048.00,0.72
5046.00,0.72
5044.00,0.72
5042.00,0.73
5040.00,0.73
5038.00,0.73
5036.00,0.73
5034.00,0.73
5032.00,0.73
5030.00,0.74
5028.00,0.74
5026.00,0.74
5024.00,0.74
5022.00,0.74
5020.00,0.74
5018.00,0.74
5016.00,0.74
5014.00,0.75
5012.00,0.75
5010.00,0.75
5008.00,0.75
5006.00,0.75
5004.00,0.75
5002.00,0.75
5000.00,0.75
4998.00,0.76
4996.00,0.76
4994.00,0.76
4992.00,0.76
4990.00,0.76
4988.00,0.76
4986.00,0.76
4984.00,0.76
4982.00,0.76
4980.00,0.77
4978.00,0.77
4976.00,0.77
4974.00,0.77
4972.00,0.77
4970.00,0.77
4968.00,0.77
4966.00,0.77
4964.00,0.78
4962.00,0.78
4960.00,0.78
4958.00,0.78
4956.00,0.78
4954.00,0.78
4952.00,0.78
4950.00,0.78
4948.00,0.78
4946.00,0.78
4944.00,0.78
4942.00,0.78
4940.00,0.78
4938.00,0.78
4936.00,0.78
4934.00,0.78
4932.00,0.78
4930.00,0.79
4928.00,0.79
4926.00,0.79
4924.00,0.79
4922.00,0.79
4920.00,0.79
4918.00,0.79
4916.00,0.79
4914.00,0.79
4912.00,0.79
4910.00,0.79
4908.00,0.79
4906.00,0.79
4904.00,0.79
4902.00,0.79
4900.00,0.79
4898.00,0.79
4896.00,0.79
4894.00,0.79
4892.00,0.79
4890.00,0.79
4888.00,0.79
4886.00,0.79
4884.00,0.79
4882.00,0.79
4880.00,0.79
4878.00,0.79
4876.00,0.79
4874.00,0.79
4872.00,0.79
4870.00,0.79
4868.00,0.79
4866.00,0.79
4864.00,0.79
4862.00,0.79
4860.00,0.79
4858.00,0.80
4856.00,0.80
4854.00,0.80
4852.00,0.80
4850.00,0.80
4848.00,0.80
4846.00,0.80
4844.00,0.80
4842.00,0.80
4840.00,0.80
4838.00,0.80
4836.00,0.80
4834.00,0.80
4832.00,0.80
4830.00,0.80
4828.00,0.80
4826.00,0.80
4824.00,0.80
4822.00,0.80
4820.00,0.80
4818.00,0.80
4816.00,0.80
4814.00,0.80
4812.00,0.81
4810.00,0.81
4808.00,0.81
4806.00,0.81
4804.00,0.81
4802.00,0.81
4800.00,0.81
4798.00,0.81
4796.00,0.81
4794.00,0.81
4792.00,0.81
4790.00,0.81
4788.00,0.81
4786.00,0.81
4784.00,0.81
4782.00,0.81
4780.00,0.81
4778.00,0.82
4776.00,0.82
4774.00,0.82
4772.00,0.82
4770.00,0.82
4768.00,0.82
4766.00,0.82
4764.00,0.82
4762.00,0.83
4760.00,0.83
4758.00,0.83
4756.00,0.83
4754.00,0.83
4752.00,0.83
4750.00,0.83
4748.00,0.83
4746.00,0.83
4744.00,0.83
4742.00,0.83
4740.00,0.83
4738.00,0.84
4736.00,0.84
4734.00,0.84
4732.00,0.84
4730.00,0.84
4728.00,0.84
4726.00,0.84
4724.00,0.84
4722.00,0.84
4720.00,0.84
4718.00,0.84
4716.00,0.84
4714.00,0.84
4712.00,0.84
4710.00,0.84
4708.00,0.84
4706.00,0.85
4704.00,0.85
4702.00,0.85
4700.00,0.85
4698.00,0.85
4696.00,0.85
4694.00,0.85
4692.00,0.85
4690.00,0.85
4688.00,0.85
4686.00,0.85
4684.00,0.85
4682.00,0.85
4680.00,0.85
4678.00,0.85
4676.00,0.85
4674.00,0.85
4672.00,0.85
4670.00,0.85
4668.00,0.86
4666.00,0.86
4664.00,0.86
4662.00,0.86
4660.00,0.86
4658.00,0.86
4656.00,0.86
4654.00,0.86
4652.00,0.86
4650.00,0.86
4648.00,0.86
4646.00,0.86
4644.00,0.86
4642.00,0.86
4640.00,0.86
4638.00,0.86
4636.00,0.86
4634.00,0.86
4632.00,0.86
4630.00,0.86
4628.00,0.86
4626.00,0.86
4624.00,0.86
4622.00,0.87
4620.00,0.87
4618.00,0.87
4616.00,0.87
4614.00,0.87
4612.00,0.87
4610.00,0.87
4608.00,0.87
4606.00,0.87
4604.00,0.87
4602.00,0.87
4600.00,0.87
4598.00,0.87
4596.00,0.87
4594.00,0.87
4592.00,0.87
4590.00,0.87
4588.00,0.87
4586.00,0.87
4584.00,0.87
4582.00,0.87
4580.00,0.87
4578.00,0.87
4576.00,0.87
4574.00,0.87
4572.00,0.87
4570.00,0.86
4568.00,0.86
4566.00,0.86
4564.00,0.86
4562.00,0.86
4560.00,0.86
4558.00,0.87
4556.00,0.87
4554.00,0.87
4552.00,0.87
4550.00,0.87
4548.00,0.87
4546.00,0.86
4544.00,0.86
4542.00,0.86
4540.00,0.86
4538.00,0.86
4536.00,0.86
4534.00,0.86
4532.00,0.86
4530.00,0.86
4528.00,0.87
4526.00,0.87
4524.00,0.87
4522.00,0.87
4520.00,0.87
4518.00,0.87
4516.00,0.87
4514.00,0.87
4512.00,0.87
4510.00,0.87
4508.00,0.87
4506.00,0.87
4504.00,0.87
4502.00,0.87
4500.00,0.87
4498.00,0.87
4496.00,0.87
4494.00,0.87
4492.00,0.87
4490.00,0.87
4488.00,0.87
4486.00,0.87
4484.00,0.87
4482.00,0.87
4480.00,0.87
4478.00,0.87
4476.00,0.87
4474.00,0.87
4472.00,0.87
4470.00,0.87
4468.00,0.86
4466.00,0.86
4464.00,0.86
4462.00,0.86
4460.00,0.86
4458.00,0.86
4456.00,0.86
4454.00,0.86
4452.00,0.85
4450.00,0.85
4448.00,0.85
4446.00,0.85
4444.00,0.84
4442.00,0.84
4440.00,0.83
4438.00,0.83
4436.00,0.82
4434.00,0.82
4432.00,0.81
4430.00,0.80
4428.00,0.80
4426.00,0.79
4424.00,0.79
4422.00,0.78
4420.00,0.78
4418.00,0.78
4416.00,0.77
4414.00,0.77
4412.00,0.77
4410.00,0.77
4408.00,0.77
4406.00,0.77
4404.00,0.77
4402.00,0.77
4400.00,0.77
4398.00,0.77
4396.00,0.78
4394.00,0.78
4392.00,0.78
4390.00,0.78
4388.00,0.79
4386.00,0.79
4384.00,0.79
4382.00,0.80
4380.00,0.80
4378.00,0.80
4376.00,0.81
4374.00,0.81
4372.00,0.81
4370.00,0.81
4368.00,0.81
4366.00,0.81
4364.00,0.81
4362.00,0.80
4360.00,0.80
4358.00,0.80
4356.00,0.80
4354.00,0.79
4352.00,0.79
4350.00,0.79
4348.00,0.78
4346.00,0.78
4344.00,0.78
4342.00,0.78
4340.00,0.78
4338.00,0.78
4336.00,0.78
4334.00,0.78
4332.00,0.78
4330.00,0.78
4328.00,0.79
4326.00,0.79
4324.00,0.80
4322.00,0.80
4320.00,0.80
4318.00,0.81
4316.00,0.81
4314.00,0.82
4312.00,0.82
4310.00,0.83
4308.00,0.83
4306.00,0.84
4304.00,0.84
4302.00,0.84
4300.00,0.85
4298.00,0.85
4296.00,0.85
4294.00,0.85
4292.00,0.86
4290.00,0.86
4288.00,0.86
4286.00,0.86
4284.00,0.86
4282.00,0.86
4280.00,0.86
4278.00,0.86
4276.00,0.86
4274.00,0.86
4272.00,0.86
4270.00,0.86
4268.00,0.85
4266.00,0.85
4264.00,0.85
4262.00,0.85
4260.00,0.84
4258.00,0.84
4256.00,0.84
4254.00,0.84
4252.00,0.84
4250.00,0.84
4248.00,0.84
4246.00,0.84
4244.00,0.85
4242.00,0.85
4240.00,0.85
4238.00,0.85
4236.00,0.86
4234.00,0.86
4232.00,0.86
4230.00,0.86
4228.00,0.87
4226.00,0.87
4224.00,0.87
4222.00,0.87
4220.00,0.87
4218.00,0.87
4216.00,0.87
4214.00,0.87
4212.00,0.87
4210.00,0.87
4208.00,0.87
4206.00,0.86
4204.00,0.86
4202.00,0.87
4200.00,0.87
4198.00,0.87
4196.00,0.87
4194.00,0.87
4192.00,0.87
4190.00,0.87
4188.00,0.87
4186.00,0.87
4184.00,0.87
4182.00,0.87
4180.00,0.87
4178.00,0.87
4176.00,0.87
4174.00,0.87
4172.00,0.86
4170.00,0.86
4168.00,0.86
4166.00,0.86
4164.00,0.86
4162.00,0.86
4160.00,0.86
4158.00,0.86
4156.00,0.86
4154.00,0.87
4152.00,0.87
4150.00,0.87
4148.00,0.87
4146.00,0.87
4144.00,0.87
4142.00,0.87
4140.00,0.87
4138.00,0.87
4136.00,0.87
4134.00,0.87
4132.00,0.87
4130.00,0.87
4128.00,0.87
4126.00,0.87
4124.00,0.87
4122.00,0.87
4120.00,0.87
4118.00,0.87
4116.00,0.86
4114.00,0.86
4112.00,0.86
4110.00,0.86
4108.00,0.86
4106.00,0.86
4104.00,0.86
4102.00,0.86
4100.00,0.86
4098.00,0.86
4096.00,0.86
4094.00,0.85
4092.00,0.85
4090.00,0.85
4088.00,0.85
4086.00,0.85
4084.00,0.85
4082.00,0.85
4080.00,0.85
4078.00,0.85
4076.00,0.85
4074.00,0.85
4072.00,0.84
4070.00,0.84
4068.00,0.84
4066.00,0.84
4064.00,0.84
4062.00,0.84
4060.00,0.84
4058.00,0.84
4056.00,0.85
4054.00,0.85
4052.00,0.85
4050.00,0.85
4048.00,0.85
4046.00,0.86
4044.00,0.86
4042.00,0.86
4040.00,0.85
4038.00,0.85
4036.00,0.85
4034.00,0.86
4032.00,0.86
4030.00,0.86
4028.00,0.86
4026.00,0.86
4024.00,0.86
4022.00,0.87
4020.00,0.87
4018.00,0.87
4016.00,0.87
4014.00,0.87
4012.00,0.87
4010.00,0.87
4008.00,0.87
4006.00,0.87
4004.00,0.87
4002.00,0.87
4000.00,0.87
