创建为新数据集,样品 1602 用户 Administrator 日期 星期日, 三月 12 2017
cm-1,%T
10000.00,0.85
9998.00,0.85
9996.00,0.85
9994.00,0.85
9992.00,0.85
9990.00,0.85
9988.00,0.85
9986.00,0.85
9984.00,0.85
9982.00,0.85
9980.00,0.85
9978.00,0.85
9976.00,0.85
9974.00,0.85
9972.00,0.85
9970.00,0.85
9968.00,0.85
9966.00,0.85
9964.00,0.85
9962.00,0.85
9960.00,0.85
9958.00,0.84
9956.00,0.84
9954.00,0.83
9952.00,0.83
9950.00,0.82
9948.00,0.82
9946.00,0.81
9944.00,0.81
9942.00,0.81
9940.00,0.81
9938.00,0.81
9936.00,0.81
9934.00,0.81
9932.00,0.81
9930.00,0.81
9928.00,0.81
9926.00,0.82
9924.00,0.82
9922.00,0.82
9920.00,0.82
9918.00,0.83
9916.00,0.83
9914.00,0.83
9912.00,0.82
9910.00,0.82
9908.00,0.81
9906.00,0.81
9904.00,0.80
9902.00,0.80
9900.00,0.80
9898.00,0.79
9896.00,0.79
9894.00,0.79
9892.00,0.79
9890.00,0.79
9888.00,0.79
9886.00,0.79
9884.00,0.79
9882.00,0.79
9880.00,0.79
9878.00,0.80
9876.00,0.81
9874.00,0.82
9872.00,0.82
9870.00,0.83
9868.00,0.83
9866.00,0.83
9864.00,0.83
9862.00,0.83
9860.00,0.83
9858.00,0.82
9856.00,0.82
9854.00,0.83
9852.00,0.83
9850.00,0.83
9848.00,0.84
9846.00,0.84
9844.00,0.84
9842.00,0.84
9840.00,0.84
9838.00,0.84
9836.00,0.84
9834.00,0.84
9832.00,0.84
9830.00,0.84
9828.00,0.84
9826.00,0.84
9824.00,0.84
9822.00,0.84
9820.00,0.84
9818.00,0.83
9816.00,0.83
9814.00,0.83
9812.00,0.83
9810.00,0.83
9808.00,0.83
9806.00,0.83
9804.00,0.83
9802.00,0.83
9800.00,0.84
9798.00,0.84
9796.00,0.84
9794.00,0.84
9792.00,0.83
9790.00,0.83
9788.00,0.83
9786.00,0.83
9784.00,0.83
9782.00,0.82
9780.00,0.82
9778.00,0.82
9776.00,0.82
9774.00,0.82
9772.00,0.83
9770.00,0.83
9768.00,0.83
9766.00,0.83
9764.00,0.84
9762.00,0.84
9760.00,0.84
9758.00,0.84
9756.00,0.84
9754.00,0.84
9752.00,0.85
9750.00,0.85
9748.00,0.85
9746.00,0.85
9744.00,0.86
9742.00,0.86
9740.00,0.86
9738.00,0.85
9736.00,0.85
9734.00,0.84
9732.00,0.83
9730.00,0.83
9728.00,0.83
9726.00,0.82
9724.00,0.82
9722.00,0.82
9720.00,0.82
9718.00,0.82
9716.00,0.82
9714.00,0.82
9712.00,0.81
9710.00,0.81
9708.00,0.81
9706.00,0.81
9704.00,0.81
9702.00,0.81
9700.00,0.81
9698.00,0.81
9696.00,0.82
9694.00,0.82
9692.00,0.83
9690.00,0.83
9688.00,0.83
9686.00,0.83
9684.00,0.83
9682.00,0.83
9680.00,0.83
9678.00,0.83
9676.00,0.82
9674.00,0.82
9672.00,0.81
9670.00,0.81
9668.00,0.81
9666.00,0.81
9664.00,0.81
9662.00,0.81
9660.00,0.82
9658.00,0.82
9656.00,0.83
9654.00,0.83
9652.00,0.84
9650.00,0.84
9648.00,0.84
9646.00,0.84
9644.00,0.84
9642.00,0.84
9640.00,0.83
9638.00,0.83
9636.00,0.82
9634.00,0.82
9632.00,0.81
9630.00,0.81
9628.00,0.80
9626.00,0.80
9624.00,0.80
9622.00,0.80
9620.00,0.80
9618.00,0.80
9616.00,0.80
9614.00,0.80
9612.00,0.80
9610.00,0.80
9608.00,0.80
9606.00,0.80
9604.00,0.80
9602.00,0.81
9600.00,0.81
9598.00,0.81
9596.00,0.82
9594.00,0.82
9592.00,0.83
9590.00,0.83
9588.00,0.84
9586.00,0.84
9584.00,0.85
9582.00,0.85
9580.00,0.86
9578.00,0.86
9576.00,0.86
9574.00,0.86
9572.00,0.86
9570.00,0.86
9568.00,0.85
9566.00,0.85
9564.00,0.84
9562.00,0.84
9560.00,0.84
9558.00,0.83
9556.00,0.83
9554.00,0.83
9552.00,0.83
9550.00,0.83
9548.00,0.82
9546.00,0.82
9544.00,0.82
9542.00,0.81
9540.00,0.81
9538.00,0.80
9536.00,0.80
9534.00,0.80
9532.00,0.80
9530.00,0.80
9528.00,0.81
9526.00,0.81
9524.00,0.81
9522.00,0.82
9520.00,0.82
9518.00,0.82
9516.00,0.81
9514.00,0.81
9512.00,0.81
9510.00,0.81
9508.00,0.81
9506.00,0.81
9504.00,0.81
9502.00,0.81
9500.00,0.81
9498.00,0.81
9496.00,0.81
9494.00,0.81
9492.00,0.82
9490.00,0.82
9488.00,0.82
9486.00,0.82
9484.00,0.83
9482.00,0.83
9480.00,0.83
9478.00,0.83
9476.00,0.83
9474.00,0.83
9472.00,0.83
9470.00,0.83
9468.00,0.83
9466.00,0.83
9464.00,0.83
9462.00,0.83
9460.00,0.82
9458.00,0.82
9456.00,0.82
9454.00,0.82
9452.00,0.81
9450.00,0.81
9448.00,0.82
9446.00,0.82
9444.00,0.82
9442.00,0.82
9440.00,0.83
9438.00,0.83
9436.00,0.83
9434.00,0.83
9432.00,0.83
9430.00,0.83
9428.00,0.83
9426.00,0.83
9424.00,0.83
9422.00,0.83
9420.00,0.83
9418.00,0.83
9416.00,0.83
9414.00,0.83
9412.00,0.83
9410.00,0.83
9408.00,0.83
9406.00,0.83
9404.00,0.83
9402.00,0.83
9400.00,0.83
9398.00,0.84
9396.00,0.84
9394.00,0.84
9392.00,0.84
9390.00,0.84
9388.00,0.84
9386.00,0.84
9384.00,0.84
9382.00,0.83
9380.00,0.83
9378.00,0.83
9376.00,0.82
9374.00,0.82
9372.00,0.82
9370.00,0.82
9368.00,0.82
9366.00,0.82
9364.00,0.83
9362.00,0.83
9360.00,0.84
9358.00,0.84
9356.00,0.84
9354.00,0.84
9352.00,0.84
9350.00,0.83
9348.00,0.83
9346.00,0.83
9344.00,0.82
9342.00,0.82
9340.00,0.82
9338.00,0.82
9336.00,0.82
9334.00,0.81
9332.00,0.81
9330.00,0.81
9328.00,0.81
9326.00,0.81
9324.00,0.81
9322.00,0.82
9320.00,0.82
9318.00,0.83
9316.00,0.83
9314.00,0.84
9312.00,0.84
9310.00,0.85
9308.00,0.85
9306.00,0.85
9304.00,0.85
9302.00,0.84
9300.00,0.84
9298.00,0.83
9296.00,0.83
9294.00,0.83
9292.00,0.82
9290.00,0.82
9288.00,0.82
9286.00,0.83
9284.00,0.83
9282.00,0.83
9280.00,0.83
9278.00,0.84
9276.00,0.84
9274.00,0.83
9272.00,0.83
9270.00,0.83
9268.00,0.83
9266.00,0.83
9264.00,0.83
9262.00,0.83
9260.00,0.83
9258.00,0.83
9256.00,0.83
9254.00,0.83
9252.00,0.83
9250.00,0.83
9248.00,0.82
9246.00,0.82
9244.00,0.82
9242.00,0.81
9240.00,0.81
9238.00,0.81
9236.00,0.80
9234.00,0.80
9232.00,0.81
9230.00,0.81
9228.00,0.81
9226.00,0.82
9224.00,0.82
9222.00,0.83
9220.00,0.83
9218.00,0.83
9216.00,0.83
9214.00,0.83
9212.00,0.83
9210.00,0.83
9208.00,0.83
9206.00,0.83
9204.00,0.83
9202.00,0.83
9200.00,0.83
9198.00,0.83
9196.00,0.83
9194.00,0.83
9192.00,0.83
9190.00,0.83
9188.00,0.83
9186.00,0.83
9184.00,0.82
9182.00,0.82
9180.00,0.82
9178.00,0.82
9176.00,0.82
9174.00,0.82
9172.00,0.82
9170.00,0.82
9168.00,0.82
9166.00,0.82
9164.00,0.82
9162.00,0.82
9160.00,0.82
9158.00,0.82
9156.00,0.83
9154.00,0.83
9152.00,0.83
9150.00,0.82
9148.00,0.82
9146.00,0.82
9144.00,0.82
9142.00,0.82
9140.00,0.82
9138.00,0.82
9136.00,0.82
9134.00,0.82
9132.00,0.82
9130.00,0.82
9128.00,0.82
9126.00,0.82
9124.00,0.82
9122.00,0.83
9120.00,0.83
9118.00,0.84
9116.00,0.84
9114.00,0.84
9112.00,0.84
9110.00,0.84
9108.00,0.84
9106.00,0.84
9104.00,0.84
9102.00,0.84
9100.00,0.84
9098.00,0.84
9096.00,0.83
9094.00,0.83
9092.00,0.83
9090.00,0.83
9088.00,0.83
9086.00,0.83
9084.00,0.82
9082.00,0.82
9080.00,0.82
9078.00,0.82
9076.00,0.82
9074.00,0.82
9072.00,0.82
9070.00,0.82
9068.00,0.83
9066.00,0.83
9064.00,0.83
9062.00,0.83
9060.00,0.83
9058.00,0.83
9056.00,0.83
9054.00,0.83
9052.00,0.83
9050.00,0.83
9048.00,0.83
9046.00,0.83
9044.00,0.83
9042.00,0.83
9040.00,0.83
9038.00,0.83
9036.00,0.83
9034.00,0.83
9032.00,0.83
9030.00,0.83
9028.00,0.83
9026.00,0.83
9024.00,0.83
9022.00,0.83
9020.00,0.84
9018.00,0.84
9016.00,0.85
9014.00,0.85
9012.00,0.85
9010.00,0.85
9008.00,0.85
9006.00,0.85
9004.00,0.85
9002.00,0.84
9000.00,0.84
8998.00,0.83
8996.00,0.83
8994.00,0.82
8992.00,0.82
8990.00,0.82
8988.00,0.82
8986.00,0.82
8984.00,0.82
8982.00,0.82
8980.00,0.82
8978.00,0.82
8976.00,0.82
8974.00,0.82
8972.00,0.82
8970.00,0.83
8968.00,0.83
8966.00,0.83
8964.00,0.83
8962.00,0.82
8960.00,0.82
8958.00,0.82
8956.00,0.82
8954.00,0.81
8952.00,0.81
8950.00,0.81
8948.00,0.81
8946.00,0.81
8944.00,0.81
8942.00,0.81
8940.00,0.81
8938.00,0.81
8936.00,0.81
8934.00,0.81
8932.00,0.81
8930.00,0.81
8928.00,0.82
8926.00,0.82
8924.00,0.82
8922.00,0.82
8920.00,0.82
8918.00,0.82
8916.00,0.82
8914.00,0.82
8912.00,0.83
8910.00,0.83
8908.00,0.83
8906.00,0.83
8904.00,0.83
8902.00,0.83
8900.00,0.83
8898.00,0.83
8896.00,0.83
8894.00,0.83
8892.00,0.83
8890.00,0.82
8888.00,0.82
8886.00,0.82
8884.00,0.82
8882.00,0.82
8880.00,0.82
8878.00,0.82
8876.00,0.82
8874.00,0.83
8872.00,0.83
8870.00,0.83
8868.00,0.83
8866.00,0.83
8864.00,0.83
8862.00,0.82
8860.00,0.82
8858.00,0.82
8856.00,0.82
8854.00,0.82
8852.00,0.82
8850.00,0.82
8848.00,0.82
8846.00,0.82
8844.00,0.82
8842.00,0.82
8840.00,0.81
8838.00,0.81
8836.00,0.81
8834.00,0.81
8832.00,0.81
8830.00,0.81
8828.00,0.81
8826.00,0.81
8824.00,0.81
8822.00,0.81
8820.00,0.82
8818.00,0.82
8816.00,0.82
8814.00,0.82
8812.00,0.82
8810.00,0.82
8808.00,0.82
8806.00,0.83
8804.00,0.83
8802.00,0.83
8800.00,0.83
8798.00,0.83
8796.00,0.83
8794.00,0.83
8792.00,0.83
8790.00,0.83
8788.00,0.83
8786.00,0.82
8784.00,0.82
8782.00,0.82
8780.00,0.82
8778.00,0.82
8776.00,0.82
8774.00,0.82
8772.00,0.82
8770.00,0.82
8768.00,0.82
8766.00,0.82
8764.00,0.82
8762.00,0.82
8760.00,0.82
8758.00,0.82
8756.00,0.82
8754.00,0.82
8752.00,0.82
8750.00,0.82
8748.00,0.82
8746.00,0.82
8744.00,0.82
8742.00,0.82
8740.00,0.82
8738.00,0.82
8736.00,0.82
8734.00,0.82
8732.00,0.82
8730.00,0.82
8728.00,0.82
8726.00,0.82
8724.00,0.82
8722.00,0.82
8720.00,0.82
8718.00,0.82
8716.00,0.83
8714.00,0.83
8712.00,0.83
8710.00,0.83
8708.00,0.83
8706.00,0.84
8704.00,0.84
8702.00,0.84
8700.00,0.84
8698.00,0.84
8696.00,0.83
8694.00,0.83
8692.00,0.82
8690.00,0.82
8688.00,0.81
8686.00,0.81
8684.00,0.80
8682.00,0.80
8680.00,0.80
8678.00,0.81
8676.00,0.81
8674.00,0.81
8672.00,0.81
8670.00,0.81
8668.00,0.82
8666.00,0.82
8664.00,0.82
8662.00,0.82
8660.00,0.82
8658.00,0.82
8656.00,0.82
8654.00,0.82
8652.00,0.82
8650.00,0.82
8648.00,0.81
8646.00,0.81
8644.00,0.81
8642.00,0.81
8640.00,0.81
8638.00,0.81
8636.00,0.81
8634.00,0.81
8632.00,0.81
8630.00,0.82
8628.00,0.82
8626.00,0.82
8624.00,0.82
8622.00,0.83
8620.00,0.83
8618.00,0.83
8616.00,0.83
8614.00,0.82
8612.00,0.82
8610.00,0.82
8608.00,0.82
8606.00,0.82
8604.00,0.82
8602.00,0.81
8600.00,0.81
8598.00,0.81
8596.00,0.81
8594.00,0.80
8592.00,0.80
8590.00,0.80
8588.00,0.80
8586.00,0.80
8584.00,0.81
8582.00,0.81
8580.00,0.81
8578.00,0.82
8576.00,0.82
8574.00,0.82
8572.00,0.82
8570.00,0.82
8568.00,0.83
8566.00,0.83
8564.00,0.83
8562.00,0.83
8560.00,0.83
8558.00,0.83
8556.00,0.83
8554.00,0.82
8552.00,0.82
8550.00,0.82
8548.00,0.82
8546.00,0.82
8544.00,0.82
8542.00,0.83
8540.00,0.83
8538.00,0.83
8536.00,0.82
8534.00,0.82
8532.00,0.82
8530.00,0.82
8528.00,0.82
8526.00,0.82
8524.00,0.82
8522.00,0.82
8520.00,0.82
8518.00,0.82
8516.00,0.82
8514.00,0.82
8512.00,0.82
8510.00,0.82
8508.00,0.82
8506.00,0.82
8504.00,0.82
8502.00,0.82
8500.00,0.82
8498.00,0.82
8496.00,0.82
8494.00,0.81
8492.00,0.81
8490.00,0.81
8488.00,0.81
8486.00,0.81
8484.00,0.81
8482.00,0.81
8480.00,0.81
8478.00,0.81
8476.00,0.81
8474.00,0.81
8472.00,0.81
8470.00,0.80
8468.00,0.80
8466.00,0.81
8464.00,0.81
8462.00,0.81
8460.00,0.82
8458.00,0.82
8456.00,0.82
8454.00,0.82
8452.00,0.82
8450.00,0.82
8448.00,0.82
8446.00,0.81
8444.00,0.81
8442.00,0.81
8440.00,0.81
8438.00,0.81
8436.00,0.82
8434.00,0.82
8432.00,0.82
8430.00,0.82
8428.00,0.82
8426.00,0.82
8424.00,0.82
8422.00,0.82
8420.00,0.82
8418.00,0.82
8416.00,0.82
8414.00,0.82
8412.00,0.82
8410.00,0.82
8408.00,0.81
8406.00,0.81
8404.00,0.81
8402.00,0.81
8400.00,0.81
8398.00,0.80
8396.00,0.80
8394.00,0.80
8392.00,0.80
8390.00,0.80
8388.00,0.81
8386.00,0.81
8384.00,0.81
8382.00,0.82
8380.00,0.82
8378.00,0.82
8376.00,0.82
8374.00,0.82
8372.00,0.82
8370.00,0.82
8368.00,0.82
8366.00,0.82
8364.00,0.82
8362.00,0.82
8360.00,0.82
8358.00,0.81
8356.00,0.81
8354.00,0.82
8352.00,0.82
8350.00,0.82
8348.00,0.82
8346.00,0.82
8344.00,0.82
8342.00,0.82
8340.00,0.82
8338.00,0.82
8336.00,0.82
8334.00,0.82
8332.00,0.82
8330.00,0.82
8328.00,0.82
8326.00,0.82
8324.00,0.82
8322.00,0.82
8320.00,0.82
8318.00,0.81
8316.00,0.81
8314.00,0.81
8312.00,0.81
8310.00,0.81
8308.00,0.81
8306.00,0.81
8304.00,0.81
8302.00,0.82
8300.00,0.82
8298.00,0.82
8296.00,0.83
8294.00,0.83
8292.00,0.83
8290.00,0.83
8288.00,0.83
8286.00,0.83
8284.00,0.83
8282.00,0.83
8280.00,0.82
8278.00,0.82
8276.00,0.82
8274.00,0.81
8272.00,0.81
8270.00,0.81
8268.00,0.81
8266.00,0.81
8264.00,0.81
8262.00,0.81
8260.00,0.81
8258.00,0.81
8256.00,0.81
8254.00,0.81
8252.00,0.81
8250.00,0.81
8248.00,0.81
8246.00,0.81
8244.00,0.81
8242.00,0.82
8240.00,0.82
8238.00,0.82
8236.00,0.82
8234.00,0.82
8232.00,0.82
8230.00,0.82
8228.00,0.82
8226.00,0.83
8224.00,0.83
8222.00,0.83
8220.00,0.82
8218.00,0.82
8216.00,0.82
8214.00,0.82
8212.00,0.82
8210.00,0.82
8208.00,0.82
8206.00,0.82
8204.00,0.82
8202.00,0.82
8200.00,0.82
8198.00,0.82
8196.00,0.82
8194.00,0.83
8192.00,0.83
8190.00,0.83
8188.00,0.83
8186.00,0.83
8184.00,0.83
8182.00,0.83
8180.00,0.83
8178.00,0.83
8176.00,0.83
8174.00,0.82
8172.00,0.82
8170.00,0.82
8168.00,0.82
8166.00,0.82
8164.00,0.82
8162.00,0.82
8160.00,0.82
8158.00,0.82
8156.00,0.82
8154.00,0.82
8152.00,0.82
8150.00,0.82
8148.00,0.82
8146.00,0.82
8144.00,0.82
8142.00,0.82
8140.00,0.82
8138.00,0.82
8136.00,0.82
8134.00,0.82
8132.00,0.83
8130.00,0.83
8128.00,0.83
8126.00,0.83
8124.00,0.83
8122.00,0.83
8120.00,0.83
8118.00,0.83
8116.00,0.82
8114.00,0.82
8112.00,0.82
8110.00,0.82
8108.00,0.82
8106.00,0.82
8104.00,0.82
8102.00,0.82
8100.00,0.82
8098.00,0.82
8096.00,0.82
8094.00,0.82
8092.00,0.82
8090.00,0.83
8088.00,0.83
8086.00,0.83
8084.00,0.83
8082.00,0.83
8080.00,0.83
8078.00,0.83
8076.00,0.82
8074.00,0.82
8072.00,0.82
8070.00,0.82
8068.00,0.82
8066.00,0.82
8064.00,0.82
8062.00,0.82
8060.00,0.82
8058.00,0.82
8056.00,0.82
8054.00,0.82
8052.00,0.82
8050.00,0.82
8048.00,0.82
8046.00,0.82
8044.00,0.82
8042.00,0.82
8040.00,0.82
8038.00,0.82
8036.00,0.82
8034.00,0.82
8032.00,0.82
8030.00,0.83
8028.00,0.83
8026.00,0.83
8024.00,0.83
8022.00,0.83
8020.00,0.82
8018.00,0.82
8016.00,0.82
8014.00,0.82
8012.00,0.82
8010.00,0.82
8008.00,0.82
8006.00,0.82
8004.00,0.82
8002.00,0.82
8000.00,0.83
7998.00,0.83
7996.00,0.83
7994.00,0.83
7992.00,0.83
7990.00,0.83
7988.00,0.83
7986.00,0.83
7984.00,0.83
7982.00,0.83
7980.00,0.83
7978.00,0.83
7976.00,0.83
7974.00,0.83
7972.00,0.83
7970.00,0.82
7968.00,0.82
7966.00,0.82
7964.00,0.83
7962.00,0.83
7960.00,0.83
7958.00,0.83
7956.00,0.83
7954.00,0.84
7952.00,0.84
7950.00,0.84
7948.00,0.84
7946.00,0.84
7944.00,0.84
7942.00,0.84
7940.00,0.84
7938.00,0.84
7936.00,0.84
7934.00,0.84
7932.00,0.83
7930.00,0.83
7928.00,0.83
7926.00,0.83
7924.00,0.83
7922.00,0.83
7920.00,0.83
7918.00,0.83
7916.00,0.83
7914.00,0.83
7912.00,0.83
7910.00,0.83
7908.00,0.83
7906.00,0.83
7904.00,0.83
7902.00,0.83
7900.00,0.83
7898.00,0.83
7896.00,0.83
7894.00,0.83
7892.00,0.83
7890.00,0.83
7888.00,0.83
7886.00,0.83
7884.00,0.83
7882.00,0.83
7880.00,0.83
7878.00,0.83
7876.00,0.83
7874.00,0.83
7872.00,0.83
7870.00,0.83
7868.00,0.83
7866.00,0.83
7864.00,0.83
7862.00,0.83
7860.00,0.83
7858.00,0.83
7856.00,0.83
7854.00,0.83
7852.00,0.83
7850.00,0.83
7848.00,0.83
7846.00,0.83
7844.00,0.83
7842.00,0.83
7840.00,0.83
7838.00,0.83
7836.00,0.83
7834.00,0.83
7832.00,0.83
7830.00,0.83
7828.00,0.83
7826.00,0.83
7824.00,0.83
7822.00,0.83
7820.00,0.83
7818.00,0.83
7816.00,0.83
7814.00,0.83
7812.00,0.83
7810.00,0.83
7808.00,0.83
7806.00,0.83
7804.00,0.83
7802.00,0.83
7800.00,0.83
7798.00,0.83
7796.00,0.82
7794.00,0.82
7792.00,0.82
7790.00,0.82
7788.00,0.82
7786.00,0.82
7784.00,0.82
7782.00,0.82
7780.00,0.82
7778.00,0.83
7776.00,0.83
7774.00,0.84
7772.00,0.84
7770.00,0.84
7768.00,0.84
7766.00,0.84
7764.00,0.84
7762.00,0.84
7760.00,0.84
7758.00,0.84
7756.00,0.84
7754.00,0.84
7752.00,0.84
7750.00,0.84
7748.00,0.84
7746.00,0.84
7744.00,0.84
7742.00,0.84
7740.00,0.84
7738.00,0.84
7736.00,0.84
7734.00,0.84
7732.00,0.84
7730.00,0.84
7728.00,0.84
7726.00,0.84
7724.00,0.84
7722.00,0.84
7720.00,0.84
7718.00,0.84
7716.00,0.84
7714.00,0.84
7712.00,0.84
7710.00,0.84
7708.00,0.84
7706.00,0.83
7704.00,0.83
7702.00,0.83
7700.00,0.83
7698.00,0.83
7696.00,0.83
7694.00,0.83
7692.00,0.83
7690.00,0.83
7688.00,0.83
7686.00,0.83
7684.00,0.83
7682.00,0.83
7680.00,0.84
7678.00,0.84
7676.00,0.84
7674.00,0.84
7672.00,0.84
7670.00,0.84
7668.00,0.84
7666.00,0.84
7664.00,0.84
7662.00,0.84
7660.00,0.84
7658.00,0.84
7656.00,0.84
7654.00,0.84
7652.00,0.83
7650.00,0.83
7648.00,0.84
7646.00,0.84
7644.00,0.84
7642.00,0.84
7640.00,0.84
7638.00,0.84
7636.00,0.84
7634.00,0.84
7632.00,0.84
7630.00,0.83
7628.00,0.83
7626.00,0.83
7624.00,0.82
7622.00,0.82
7620.00,0.82
7618.00,0.82
7616.00,0.82
7614.00,0.82
7612.00,0.83
7610.00,0.83
7608.00,0.83
7606.00,0.83
7604.00,0.84
7602.00,0.84
7600.00,0.84
7598.00,0.84
7596.00,0.83
7594.00,0.83
7592.00,0.83
7590.00,0.83
7588.00,0.83
7586.00,0.83
7584.00,0.83
7582.00,0.83
7580.00,0.83
7578.00,0.83
7576.00,0.83
7574.00,0.83
7572.00,0.83
7570.00,0.83
7568.00,0.83
7566.00,0.83
7564.00,0.83
7562.00,0.83
7560.00,0.83
7558.00,0.83
7556.00,0.83
7554.00,0.83
7552.00,0.83
7550.00,0.83
7548.00,0.83
7546.00,0.83
7544.00,0.83
7542.00,0.83
7540.00,0.83
7538.00,0.83
7536.00,0.83
7534.00,0.83
7532.00,0.83
7530.00,0.84
7528.00,0.84
7526.00,0.84
7524.00,0.84
7522.00,0.83
7520.00,0.83
7518.00,0.83
7516.00,0.83
7514.00,0.83
7512.00,0.83
7510.00,0.83
7508.00,0.83
7506.00,0.83
7504.00,0.83
7502.00,0.83
7500.00,0.83
7498.00,0.83
7496.00,0.82
7494.00,0.82
7492.00,0.82
7490.00,0.82
7488.00,0.82
7486.00,0.82
7484.00,0.82
7482.00,0.83
7480.00,0.83
7478.00,0.83
7476.00,0.83
7474.00,0.83
7472.00,0.83
7470.00,0.83
7468.00,0.83
7466.00,0.83
7464.00,0.83
7462.00,0.83
7460.00,0.83
7458.00,0.83
7456.00,0.83
7454.00,0.83
7452.00,0.83
7450.00,0.82
7448.00,0.82
7446.00,0.82
7444.00,0.82
7442.00,0.82
7440.00,0.83
7438.00,0.83
7436.00,0.83
7434.00,0.83
7432.00,0.83
7430.00,0.82
7428.00,0.82
7426.00,0.82
7424.00,0.82
7422.00,0.83
7420.00,0.83
7418.00,0.83
7416.00,0.83
7414.00,0.83
7412.00,0.83
7410.00,0.83
7408.00,0.83
7406.00,0.83
7404.00,0.83
7402.00,0.83
7400.00,0.83
7398.00,0.83
7396.00,0.83
7394.00,0.82
7392.00,0.82
7390.00,0.82
7388.00,0.82
7386.00,0.82
7384.00,0.82
7382.00,0.82
7380.00,0.82
7378.00,0.82
7376.00,0.82
7374.00,0.83
7372.00,0.83
7370.00,0.83
7368.00,0.83
7366.00,0.83
7364.00,0.83
7362.00,0.83
7360.00,0.83
7358.00,0.82
7356.00,0.82
7354.00,0.82
7352.00,0.82
7350.00,0.82
7348.00,0.82
7346.00,0.82
7344.00,0.82
7342.00,0.81
7340.00,0.81
7338.00,0.81
7336.00,0.81
7334.00,0.81
7332.00,0.81
7330.00,0.81
7328.00,0.81
7326.00,0.81
7324.00,0.81
7322.00,0.82
7320.00,0.82
7318.00,0.82
7316.00,0.82
7314.00,0.82
7312.00,0.82
7310.00,0.82
7308.00,0.82
7306.00,0.82
7304.00,0.82
7302.00,0.82
7300.00,0.82
7298.00,0.82
7296.00,0.82
7294.00,0.82
7292.00,0.82
7290.00,0.82
7288.00,0.82
7286.00,0.81
7284.00,0.81
7282.00,0.82
7280.00,0.82
7278.00,0.82
7276.00,0.82
7274.00,0.82
7272.00,0.82
7270.00,0.82
7268.00,0.82
7266.00,0.82
7264.00,0.82
7262.00,0.82
7260.00,0.82
7258.00,0.82
7256.00,0.81
7254.00,0.81
7252.00,0.81
7250.00,0.81
7248.00,0.81
7246.00,0.81
7244.00,0.81
7242.00,0.81
7240.00,0.80
7238.00,0.80
7236.00,0.80
7234.00,0.80
7232.00,0.80
7230.00,0.80
7228.00,0.80
7226.00,0.80
7224.00,0.80
7222.00,0.80
7220.00,0.80
7218.00,0.80
7216.00,0.80
7214.00,0.80
7212.00,0.80
7210.00,0.80
7208.00,0.80
7206.00,0.80
7204.00,0.80
7202.00,0.80
7200.00,0.80
7198.00,0.80
7196.00,0.80
7194.00,0.80
7192.00,0.80
7190.00,0.80
7188.00,0.80
7186.00,0.80
7184.00,0.80
7182.00,0.80
7180.00,0.80
7178.00,0.80
7176.00,0.80
7174.00,0.80
7172.00,0.80
7170.00,0.80
7168.00,0.80
7166.00,0.80
7164.00,0.80
7162.00,0.80
7160.00,0.80
7158.00,0.80
7156.00,0.79
7154.00,0.79
7152.00,0.79
7150.00,0.79
7148.00,0.79
7146.00,0.79
7144.00,0.79
7142.00,0.78
7140.00,0.78
7138.00,0.78
7136.00,0.78
7134.00,0.78
7132.00,0.78
7130.00,0.78
7128.00,0.78
7126.00,0.78
7124.00,0.78
7122.00,0.78
7120.00,0.78
7118.00,0.78
7116.00,0.78
7114.00,0.78
7112.00,0.78
7110.00,0.78
7108.00,0.78
7106.00,0.77
7104.00,0.77
7102.00,0.77
7100.00,0.77
7098.00,0.77
7096.00,0.77
7094.00,0.78
7092.00,0.78
7090.00,0.78
7088.00,0.77
7086.00,0.77
7084.00,0.77
7082.00,0.77
7080.00,0.77
7078.00,0.77
7076.00,0.76
7074.00,0.76
7072.00,0.76
7070.00,0.76
7068.00,0.76
7066.00,0.76
7064.00,0.76
7062.00,0.77
7060.00,0.77
7058.00,0.77
7056.00,0.77
7054.00,0.77
7052.00,0.77
7050.00,0.77
7048.00,0.77
7046.00,0.77
7044.00,0.77
7042.00,0.76
7040.00,0.76
7038.00,0.76
7036.00,0.76
7034.00,0.76
7032.00,0.76
7030.00,0.76
7028.00,0.76
7026.00,0.76
7024.00,0.76
7022.00,0.76
7020.00,0.76
7018.00,0.76
7016.00,0.76
7014.00,0.76
7012.00,0.76
7010.00,0.76
7008.00,0.76
7006.00,0.76
7004.00,0.76
7002.00,0.76
7000.00,0.76
6998.00,0.76
6996.00,0.76
6994.00,0.76
6992.00,0.76
6990.00,0.76
6988.00,0.76
6986.00,0.76
6984.00,0.76
6982.00,0.76
6980.00,0.76
6978.00,0.76
6976.00,0.76
6974.00,0.76
6972.00,0.76
6970.00,0.76
6968.00,0.76
6966.00,0.76
6964.00,0.76
6962.00,0.76
6960.00,0.76
6958.00,0.76
6956.00,0.76
6954.00,0.76
6952.00,0.76
6950.00,0.76
6948.00,0.76
6946.00,0.75
6944.00,0.75
6942.00,0.75
6940.00,0.75
6938.00,0.75
6936.00,0.75
6934.00,0.75
6932.00,0.75
6930.00,0.75
6928.00,0.75
6926.00,0.75
6924.00,0.75
6922.00,0.75
6920.00,0.75
6918.00,0.75
6916.00,0.75
6914.00,0.75
6912.00,0.75
6910.00,0.75
6908.00,0.75
6906.00,0.75
6904.00,0.75
6902.00,0.75
6900.00,0.75
6898.00,0.75
6896.00,0.75
6894.00,0.75
6892.00,0.75
6890.00,0.76
6888.00,0.76
6886.00,0.76
6884.00,0.76
6882.00,0.76
6880.00,0.76
6878.00,0.76
6876.00,0.76
6874.00,0.76
6872.00,0.76
6870.00,0.76
6868.00,0.75
6866.00,0.75
6864.00,0.75
6862.00,0.75
6860.00,0.75
6858.00,0.75
6856.00,0.75
6854.00,0.75
6852.00,0.75
6850.00,0.75
6848.00,0.75
6846.00,0.75
6844.00,0.75
6842.00,0.75
6840.00,0.75
6838.00,0.75
6836.00,0.75
6834.00,0.75
6832.00,0.74
6830.00,0.74
6828.00,0.74
6826.00,0.74
6824.00,0.74
6822.00,0.74
6820.00,0.75
6818.00,0.75
6816.00,0.75
6814.00,0.75
6812.00,0.75
6810.00,0.75
6808.00,0.75
6806.00,0.75
6804.00,0.75
6802.00,0.75
6800.00,0.75
6798.00,0.75
6796.00,0.76
6794.00,0.76
6792.00,0.76
6790.00,0.76
6788.00,0.76
6786.00,0.76
6784.00,0.76
6782.00,0.76
6780.00,0.76
6778.00,0.76
6776.00,0.76
6774.00,0.76
6772.00,0.76
6770.00,0.76
6768.00,0.76
6766.00,0.76
6764.00,0.76
6762.00,0.76
6760.00,0.76
6758.00,0.76
6756.00,0.76
6754.00,0.77
6752.00,0.77
6750.00,0.77
6748.00,0.77
6746.00,0.77
6744.00,0.77
6742.00,0.76
6740.00,0.76
6738.00,0.76
6736.00,0.76
6734.00,0.76
6732.00,0.76
6730.00,0.76
6728.00,0.76
6726.00,0.76
6724.00,0.76
6722.00,0.76
6720.00,0.76
6718.00,0.76
6716.00,0.76
6714.00,0.76
6712.00,0.76
6710.00,0.76
6708.00,0.76
6706.00,0.76
6704.00,0.76
6702.00,0.76
6700.00,0.76
6698.00,0.76
6696.00,0.76
6694.00,0.76
6692.00,0.77
6690.00,0.77
6688.00,0.77
6686.00,0.77
6684.00,0.77
6682.00,0.77
6680.00,0.77
6678.00,0.77
6676.00,0.77
6674.00,0.77
6672.00,0.77
6670.00,0.77
6668.00,0.77
6666.00,0.77
6664.00,0.77
6662.00,0.77
6660.00,0.77
6658.00,0.77
6656.00,0.77
6654.00,0.77
6652.00,0.77
6650.00,0.77
6648.00,0.77
6646.00,0.77
6644.00,0.77
6642.00,0.78
6640.00,0.78
6638.00,0.78
6636.00,0.78
6634.00,0.78
6632.00,0.78
6630.00,0.77
6628.00,0.77
6626.00,0.77
6624.00,0.77
6622.00,0.77
6620.00,0.77
6618.00,0.77
6616.00,0.77
6614.00,0.78
6612.00,0.78
6610.00,0.78
6608.00,0.78
6606.00,0.78
6604.00,0.78
6602.00,0.78
6600.00,0.78
6598.00,0.78
6596.00,0.78
6594.00,0.78
6592.00,0.78
6590.00,0.78
6588.00,0.78
6586.00,0.78
6584.00,0.78
6582.00,0.78
6580.00,0.78
6578.00,0.78
6576.00,0.78
6574.00,0.78
6572.00,0.78
6570.00,0.78
6568.00,0.78
6566.00,0.78
6564.00,0.78
6562.00,0.78
6560.00,0.78
6558.00,0.78
6556.00,0.78
6554.00,0.79
6552.00,0.79
6550.00,0.79
6548.00,0.79
6546.00,0.79
6544.00,0.79
6542.00,0.79
6540.00,0.79
6538.00,0.79
6536.00,0.79
6534.00,0.79
6532.00,0.78
6530.00,0.78
6528.00,0.78
6526.00,0.78
6524.00,0.78
6522.00,0.78
6520.00,0.78
6518.00,0.78
6516.00,0.78
6514.00,0.78
6512.00,0.78
6510.00,0.78
6508.00,0.78
6506.00,0.79
6504.00,0.79
6502.00,0.79
6500.00,0.79
6498.00,0.79
6496.00,0.79
6494.00,0.79
6492.00,0.79
6490.00,0.79
6488.00,0.79
6486.00,0.79
6484.00,0.79
6482.00,0.79
6480.00,0.79
6478.00,0.79
6476.00,0.79
6474.00,0.79
6472.00,0.79
6470.00,0.79
6468.00,0.79
6466.00,0.79
6464.00,0.79
6462.00,0.79
6460.00,0.79
6458.00,0.79
6456.00,0.79
6454.00,0.79
6452.00,0.79
6450.00,0.79
6448.00,0.79
6446.00,0.79
6444.00,0.79
6442.00,0.79
6440.00,0.79
6438.00,0.79
6436.00,0.79
6434.00,0.79
6432.00,0.79
6430.00,0.79
6428.00,0.79
6426.00,0.79
6424.00,0.79
6422.00,0.79
6420.00,0.79
6418.00,0.79
6416.00,0.79
6414.00,0.79
6412.00,0.79
6410.00,0.79
6408.00,0.79
6406.00,0.79
6404.00,0.79
6402.00,0.79
6400.00,0.79
6398.00,0.79
6396.00,0.80
6394.00,0.80
6392.00,0.80
6390.00,0.80
6388.00,0.80
6386.00,0.80
6384.00,0.80
6382.00,0.80
6380.00,0.79
6378.00,0.79
6376.00,0.79
6374.00,0.79
6372.00,0.79
6370.00,0.79
6368.00,0.79
6366.00,0.79
6364.00,0.79
6362.00,0.79
6360.00,0.79
6358.00,0.80
6356.00,0.80
6354.00,0.80
6352.00,0.80
6350.00,0.80
6348.00,0.80
6346.00,0.80
6344.00,0.80
6342.00,0.80
6340.00,0.80
6338.00,0.80
6336.00,0.80
6334.00,0.80
6332.00,0.80
6330.00,0.80
6328.00,0.80
6326.00,0.80
6324.00,0.80
6322.00,0.80
6320.00,0.80
6318.00,0.80
6316.00,0.80
6314.00,0.80
6312.00,0.80
6310.00,0.80
6308.00,0.80
6306.00,0.80
6304.00,0.80
6302.00,0.80
6300.00,0.80
6298.00,0.80
6296.00,0.80
6294.00,0.80
6292.00,0.80
6290.00,0.81
6288.00,0.81
6286.00,0.81
6284.00,0.81
6282.00,0.81
6280.00,0.81
6278.00,0.80
6276.00,0.80
6274.00,0.80
6272.00,0.80
6270.00,0.80
6268.00,0.81
6266.00,0.81
6264.00,0.81
6262.00,0.81
6260.00,0.81
6258.00,0.81
6256.00,0.81
6254.00,0.81
6252.00,0.81
6250.00,0.81
6248.00,0.81
6246.00,0.81
6244.00,0.81
6242.00,0.81
6240.00,0.81
6238.00,0.81
6236.00,0.81
6234.00,0.81
6232.00,0.81
6230.00,0.81
6228.00,0.81
6226.00,0.81
6224.00,0.81
6222.00,0.81
6220.00,0.81
6218.00,0.81
6216.00,0.81
6214.00,0.81
6212.00,0.81
6210.00,0.81
6208.00,0.81
6206.00,0.81
6204.00,0.81
6202.00,0.81
6200.00,0.81
6198.00,0.81
6196.00,0.81
6194.00,0.81
6192.00,0.81
6190.00,0.82
6188.00,0.82
6186.00,0.82
6184.00,0.82
6182.00,0.82
6180.00,0.82
6178.00,0.82
6176.00,0.82
6174.00,0.82
6172.00,0.82
6170.00,0.82
6168.00,0.82
6166.00,0.82
6164.00,0.82
6162.00,0.82
6160.00,0.82
6158.00,0.82
6156.00,0.82
6154.00,0.82
6152.00,0.82
6150.00,0.82
6148.00,0.82
6146.00,0.82
6144.00,0.82
6142.00,0.82
6140.00,0.82
6138.00,0.82
6136.00,0.83
6134.00,0.83
6132.00,0.83
6130.00,0.83
6128.00,0.83
6126.00,0.83
6124.00,0.83
6122.00,0.82
6120.00,0.82
6118.00,0.82
6116.00,0.82
6114.00,0.82
6112.00,0.82
6110.00,0.83
6108.00,0.83
6106.00,0.83
6104.00,0.83
6102.00,0.83
6100.00,0.83
6098.00,0.83
6096.00,0.83
6094.00,0.83
6092.00,0.83
6090.00,0.83
6088.00,0.83
6086.00,0.83
6084.00,0.83
6082.00,0.83
6080.00,0.83
6078.00,0.83
6076.00,0.83
6074.00,0.84
6072.00,0.84
6070.00,0.84
6068.00,0.84
6066.00,0.84
6064.00,0.84
6062.00,0.84
6060.00,0.84
6058.00,0.84
6056.00,0.84
6054.00,0.84
6052.00,0.83
6050.00,0.83
6048.00,0.83
6046.00,0.83
6044.00,0.83
6042.00,0.83
6040.00,0.83
6038.00,0.83
6036.00,0.83
6034.00,0.83
6032.00,0.83
6030.00,0.84
6028.00,0.84
6026.00,0.84
6024.00,0.84
6022.00,0.84
6020.00,0.84
6018.00,0.84
6016.00,0.84
6014.00,0.84
6012.00,0.84
6010.00,0.84
6008.00,0.84
6006.00,0.84
6004.00,0.84
6002.00,0.84
6000.00,0.84
5998.00,0.84
5996.00,0.84
5994.00,0.84
5992.00,0.84
5990.00,0.84
5988.00,0.84
5986.00,0.84
5984.00,0.84
5982.00,0.83
5980.00,0.83
5978.00,0.83
5976.00,0.83
5974.00,0.83
5972.00,0.83
5970.00,0.82
5968.00,0.82
5966.00,0.82
5964.00,0.82
5962.00,0.82
5960.00,0.82
5958.00,0.82
5956.00,0.82
5954.00,0.81
5952.00,0.81
5950.00,0.81
5948.00,0.81
5946.00,0.81
5944.00,0.81
5942.00,0.81
5940.00,0.81
5938.00,0.81
5936.00,0.81
5934.00,0.81
5932.00,0.81
5930.00,0.81
5928.00,0.81
5926.00,0.81
5924.00,0.81
5922.00,0.81
5920.00,0.81
5918.00,0.81
5916.00,0.81
5914.00,0.80
5912.00,0.80
5910.00,0.80
5908.00,0.80
5906.00,0.80
5904.00,0.80
5902.00,0.80
5900.00,0.80
5898.00,0.80
5896.00,0.80
5894.00,0.80
5892.00,0.80
5890.00,0.80
5888.00,0.80
5886.00,0.80
5884.00,0.81
5882.00,0.81
5880.00,0.81
5878.00,0.81
5876.00,0.81
5874.00,0.81
5872.00,0.81
5870.00,0.81
5868.00,0.81
5866.00,0.82
5864.00,0.82
5862.00,0.82
5860.00,0.82
5858.00,0.82
5856.00,0.82
5854.00,0.82
5852.00,0.82
5850.00,0.82
5848.00,0.81
5846.00,0.81
5844.00,0.81
5842.00,0.81
5840.00,0.81
5838.00,0.81
5836.00,0.81
5834.00,0.81
5832.00,0.81
5830.00,0.81
5828.00,0.81
5826.00,0.81
5824.00,0.81
5822.00,0.81
5820.00,0.81
5818.00,0.81
5816.00,0.81
5814.00,0.81
5812.00,0.81
5810.00,0.81
5808.00,0.81
5806.00,0.81
5804.00,0.81
5802.00,0.81
5800.00,0.81
5798.00,0.81
5796.00,0.81
5794.00,0.81
5792.00,0.81
5790.00,0.81
5788.00,0.81
5786.00,0.81
5784.00,0.81
5782.00,0.81
5780.00,0.81
5778.00,0.81
5776.00,0.81
5774.00,0.81
5772.00,0.81
5770.00,0.81
5768.00,0.81
5766.00,0.81
5764.00,0.81
5762.00,0.81
5760.00,0.81
5758.00,0.81
5756.00,0.81
5754.00,0.81
5752.00,0.81
5750.00,0.82
5748.00,0.82
5746.00,0.82
5744.00,0.82
5742.00,0.82
5740.00,0.82
5738.00,0.82
5736.00,0.82
5734.00,0.82
5732.00,0.82
5730.00,0.82
5728.00,0.83
5726.00,0.83
5724.00,0.83
5722.00,0.83
5720.00,0.83
5718.00,0.83
5716.00,0.83
5714.00,0.83
5712.00,0.83
5710.00,0.82
5708.00,0.82
5706.00,0.82
5704.00,0.82
5702.00,0.82
5700.00,0.82
5698.00,0.82
5696.00,0.82
5694.00,0.82
5692.00,0.82
5690.00,0.82
5688.00,0.82
5686.00,0.82
5684.00,0.82
5682.00,0.82
5680.00,0.82
5678.00,0.82
5676.00,0.82
5674.00,0.82
5672.00,0.82
5670.00,0.82
5668.00,0.82
5666.00,0.82
5664.00,0.82
5662.00,0.82
5660.00,0.82
5658.00,0.82
5656.00,0.82
5654.00,0.82
5652.00,0.82
5650.00,0.82
5648.00,0.82
5646.00,0.82
5644.00,0.82
5642.00,0.82
5640.00,0.82
5638.00,0.82
5636.00,0.82
5634.00,0.83
5632.00,0.83
5630.00,0.83
5628.00,0.83
5626.00,0.83
5624.00,0.83
5622.00,0.83
5620.00,0.83
5618.00,0.83
5616.00,0.83
5614.00,0.83
5612.00,0.83
5610.00,0.83
5608.00,0.83
5606.00,0.83
5604.00,0.83
5602.00,0.83
5600.00,0.83
5598.00,0.84
5596.00,0.84
5594.00,0.84
5592.00,0.84
5590.00,0.84
5588.00,0.84
5586.00,0.84
5584.00,0.84
5582.00,0.84
5580.00,0.84
5578.00,0.84
5576.00,0.84
5574.00,0.84
5572.00,0.84
5570.00,0.84
5568.00,0.84
5566.00,0.84
5564.00,0.84
5562.00,0.84
5560.00,0.84
5558.00,0.84
5556.00,0.84
5554.00,0.84
5552.00,0.84
5550.00,0.84
5548.00,0.84
5546.00,0.84
5544.00,0.84
5542.00,0.84
5540.00,0.84
5538.00,0.84
5536.00,0.84
5534.00,0.84
5532.00,0.84
5530.00,0.85
5528.00,0.85
5526.00,0.84
5524.00,0.84
5522.00,0.84
5520.00,0.84
5518.00,0.84
5516.00,0.84
5514.00,0.84
5512.00,0.84
5510.00,0.84
5508.00,0.84
5506.00,0.84
5504.00,0.85
5502.00,0.85
5500.00,0.85
5498.00,0.85
5496.00,0.85
5494.00,0.85
5492.00,0.85
5490.00,0.85
5488.00,0.85
5486.00,0.85
5484.00,0.84
5482.00,0.84
5480.00,0.84
5478.00,0.84
5476.00,0.84
5474.00,0.84
5472.00,0.84
5470.00,0.85
5468.00,0.85
5466.00,0.85
5464.00,0.85
5462.00,0.85
5460.00,0.85
5458.00,0.85
5456.00,0.85
5454.00,0.85
5452.00,0.84
5450.00,0.84
5448.00,0.84
5446.00,0.84
5444.00,0.84
5442.00,0.84
5440.00,0.84
5438.00,0.85
5436.00,0.85
5434.00,0.85
5432.00,0.85
5430.00,0.85
5428.00,0.85
5426.00,0.85
5424.00,0.85
5422.00,0.85
5420.00,0.85
5418.00,0.85
5416.00,0.85
5414.00,0.85
5412.00,0.85
5410.00,0.85
5408.00,0.85
5406.00,0.85
5404.00,0.85
5402.00,0.85
5400.00,0.85
5398.00,0.85
5396.00,0.85
5394.00,0.85
5392.00,0.85
5390.00,0.85
5388.00,0.85
5386.00,0.85
5384.00,0.85
5382.00,0.85
5380.00,0.85
5378.00,0.85
5376.00,0.85
5374.00,0.85
5372.00,0.85
5370.00,0.85
5368.00,0.85
5366.00,0.85
5364.00,0.85
5362.00,0.84
5360.00,0.84
5358.00,0.84
5356.00,0.84
5354.00,0.84
5352.00,0.84
5350.00,0.84
5348.00,0.83
5346.00,0.83
5344.00,0.83
5342.00,0.83
5340.00,0.83
5338.00,0.83
5336.00,0.82
5334.00,0.82
5332.00,0.82
5330.00,0.82
5328.00,0.82
5326.00,0.81
5324.00,0.81
5322.00,0.81
5320.00,0.81
5318.00,0.80
5316.00,0.80
5314.00,0.80
5312.00,0.79
5310.00,0.79
5308.00,0.79
5306.00,0.78
5304.00,0.78
5302.00,0.78
5300.00,0.77
5298.00,0.77
5296.00,0.77
5294.00,0.77
5292.00,0.76
5290.00,0.76
5288.00,0.76
5286.00,0.76
5284.00,0.76
5282.00,0.75
5280.00,0.75
5278.00,0.75
5276.00,0.75
5274.00,0.74
5272.00,0.74
5270.00,0.74
5268.00,0.74
5266.00,0.74
5264.00,0.73
5262.00,0.73
5260.00,0.73
5258.00,0.73
5256.00,0.72
5254.00,0.72
5252.00,0.72
5250.00,0.72
5248.00,0.72
5246.00,0.72
5244.00,0.71
5242.00,0.71
5240.00,0.71
5238.00,0.71
5236.00,0.71
5234.00,0.71
5232.00,0.71
5230.00,0.70
5228.00,0.70
5226.00,0.70
5224.00,0.70
5222.00,0.70
5220.00,0.70
5218.00,0.70
5216.00,0.69
5214.00,0.69
5212.00,0.69
5210.00,0.69
5208.00,0.69
5206.00,0.69
5204.00,0.68
5202.00,0.68
5200.00,0.68
5198.00,0.68
5196.00,0.68
5194.00,0.68
5192.00,0.68
5190.00,0.68
5188.00,0.68
5186.00,0.68
5184.00,0.68
5182.00,0.68
5180.00,0.68
5178.00,0.68
5176.00,0.68
5174.00,0.68
5172.00,0.68
5170.00,0.68
5168.00,0.68
5166.00,0.68
5164.00,0.68
5162.00,0.68
5160.00,0.68
5158.00,0.68
5156.00,0.68
5154.00,0.68
5152.00,0.68
5150.00,0.68
5148.00,0.68
5146.00,0.69
5144.00,0.69
5142.00,0.69
5140.00,0.69
5138.00,0.69
5136.00,0.69
5134.00,0.69
5132.00,0.69
5130.00,0.69
5128.00,0.69
5126.00,0.69
5124.00,0.69
5122.00,0.69
5120.00,0.69
5118.00,0.69
5116.00,0.70
5114.00,0.70
5112.00,0.70
5110.00,0.70
5108.00,0.70
5106.00,0.70
5104.00,0.71
5102.00,0.71
5100.00,0.71
5098.00,0.71
5096.00,0.71
5094.00,0.71
5092.00,0.71
5090.00,0.71
5088.00,0.71
5086.00,0.72
5084.00,0.72
5082.00,0.72
5080.00,0.72
5078.00,0.72
5076.00,0.72
5074.00,0.72
5072.00,0.72
5070.00,0.72
5068.00,0.72
5066.00,0.73
5064.00,0.73
5062.00,0.73
5060.00,0.73
5058.00,0.73
5056.00,0.73
5054.00,0.73
5052.00,0.74
5050.00,0.74
5048.00,0.74
5046.00,0.74
5044.00,0.74
5042.00,0.74
5040.00,0.74
5038.00,0.74
5036.00,0.74
5034.00,0.74
5032.00,0.75
5030.00,0.75
5028.00,0.75
5026.00,0.75
5024.00,0.75
5022.00,0.75
5020.00,0.76
5018.00,0.76
5016.00,0.76
5014.00,0.76
5012.00,0.76
5010.00,0.76
5008.00,0.76
5006.00,0.76
5004.00,0.76
5002.00,0.76
5000.00,0.76
4998.00,0.76
4996.00,0.76
4994.00,0.77
4992.00,0.77
4990.00,0.77
4988.00,0.77
4986.00,0.77
4984.00,0.77
4982.00,0.77
4980.00,0.77
4978.00,0.78
4976.00,0.78
4974.00,0.78
4972.00,0.78
4970.00,0.78
4968.00,0.78
4966.00,0.78
4964.00,0.78
4962.00,0.78
4960.00,0.78
4958.00,0.78
4956.00,0.78
4954.00,0.78
4952.00,0.78
4950.00,0.78
4948.00,0.78
4946.00,0.78
4944.00,0.78
4942.00,0.79
4940.00,0.79
4938.00,0.79
4936.00,0.79
4934.00,0.79
4932.00,0.79
4930.00,0.79
4928.00,0.79
4926.00,0.79
4924.00,0.79
4922.00,0.79
4920.00,0.79
4918.00,0.79
4916.00,0.79
4914.00,0.79
4912.00,0.79
4910.00,0.79
4908.00,0.79
4906.00,0.79
4904.00,0.79
4902.00,0.79
4900.00,0.79
4898.00,0.79
4896.00,0.79
4894.00,0.79
4892.00,0.79
4890.00,0.79
4888.00,0.79
4886.00,0.79
4884.00,0.79
4882.00,0.79
4880.00,0.79
4878.00,0.79
4876.00,0.79
4874.00,0.79
4872.00,0.79
4870.00,0.80
4868.00,0.80
4866.00,0.80
4864.00,0.80
4862.00,0.80
4860.00,0.80
4858.00,0.80
4856.00,0.80
4854.00,0.80
4852.00,0.80
4850.00,0.80
4848.00,0.80
4846.00,0.80
4844.00,0.80
4842.00,0.80
4840.00,0.80
4838.00,0.80
4836.00,0.80
4834.00,0.80
4832.00,0.80
4830.00,0.80
4828.00,0.80
4826.00,0.80
4824.00,0.80
4822.00,0.80
4820.00,0.80
4818.00,0.80
4816.00,0.80
4814.00,0.80
4812.00,0.80
4810.00,0.80
4808.00,0.80
4806.00,0.80
4804.00,0.80
4802.00,0.80
4800.00,0.80
4798.00,0.81
4796.00,0.81
4794.00,0.81
4792.00,0.81
4790.00,0.81
4788.00,0.81
4786.00,0.81
4784.00,0.81
4782.00,0.81
4780.00,0.81
4778.00,0.81
4776.00,0.81
4774.00,0.81
4772.00,0.81
4770.00,0.81
4768.00,0.81
4766.00,0.81
4764.00,0.81
4762.00,0.82
4760.00,0.82
4758.00,0.82
4756.00,0.82
4754.00,0.82
4752.00,0.82
4750.00,0.82
4748.00,0.82
4746.00,0.82
4744.00,0.82
4742.00,0.82
4740.00,0.82
4738.00,0.82
4736.00,0.82
4734.00,0.82
4732.00,0.82
4730.00,0.82
4728.00,0.83
4726.00,0.83
4724.00,0.83
4722.00,0.83
4720.00,0.83
4718.00,0.83
4716.00,0.83
4714.00,0.83
4712.00,0.83
4710.00,0.83
4708.00,0.83
4706.00,0.83
4704.00,0.83
4702.00,0.83
4700.00,0.83
4698.00,0.83
4696.00,0.83
4694.00,0.83
4692.00,0.83
4690.00,0.83
4688.00,0.84
4686.00,0.84
4684.00,0.84
4682.00,0.84
4680.00,0.84
4678.00,0.84
4676.00,0.84
4674.00,0.84
4672.00,0.84
4670.00,0.84
4668.00,0.84
4666.00,0.84
4664.00,0.84
4662.00,0.84
4660.00,0.84
4658.00,0.84
4656.00,0.84
4654.00,0.85
4652.00,0.85
4650.00,0.85
4648.00,0.85
4646.00,0.85
4644.00,0.85
4642.00,0.85
4640.00,0.85
4638.00,0.85
4636.00,0.85
4634.00,0.85
4632.00,0.85
4630.00,0.85
4628.00,0.85
4626.00,0.85
4624.00,0.85
4622.00,0.85
4620.00,0.85
4618.00,0.85
4616.00,0.85
4614.00,0.85
4612.00,0.85
4610.00,0.85
4608.00,0.85
4606.00,0.85
4604.00,0.85
4602.00,0.85
4600.00,0.85
4598.00,0.85
4596.00,0.85
4594.00,0.85
4592.00,0.85
4590.00,0.85
4588.00,0.85
4586.00,0.85
4584.00,0.85
4582.00,0.85
4580.00,0.85
4578.00,0.85
4576.00,0.85
4574.00,0.85
4572.00,0.85
4570.00,0.85
4568.00,0.85
4566.00,0.85
4564.00,0.84
4562.00,0.84
4560.00,0.84
4558.00,0.85
4556.00,0.85
4554.00,0.85
4552.00,0.85
4550.00,0.85
4548.00,0.85
4546.00,0.85
4544.00,0.85
4542.00,0.85
4540.00,0.85
4538.00,0.85
4536.00,0.85
4534.00,0.85
4532.00,0.85
4530.00,0.85
4528.00,0.85
4526.00,0.85
4524.00,0.85
4522.00,0.85
4520.00,0.85
4518.00,0.85
4516.00,0.85
4514.00,0.85
4512.00,0.85
4510.00,0.85
4508.00,0.85
4506.00,0.85
4504.00,0.85
4502.00,0.85
4500.00,0.85
4498.00,0.85
4496.00,0.85
4494.00,0.85
4492.00,0.85
4490.00,0.85
4488.00,0.85
4486.00,0.85
4484.00,0.85
4482.00,0.85
4480.00,0.85
4478.00,0.85
4476.00,0.85
4474.00,0.85
4472.00,0.85
4470.00,0.85
4468.00,0.84
4466.00,0.84
4464.00,0.84
4462.00,0.84
4460.00,0.84
4458.00,0.84
4456.00,0.84
4454.00,0.84
4452.00,0.83
4450.00,0.83
4448.00,0.83
4446.00,0.83
4444.00,0.82
4442.00,0.82
4440.00,0.82
4438.00,0.81
4436.00,0.81
4434.00,0.81
4432.00,0.80
4430.00,0.80
4428.00,0.80
4426.00,0.79
4424.00,0.79
4422.00,0.78
4420.00,0.78
4418.00,0.78
4416.00,0.78
4414.00,0.77
4412.00,0.77
4410.00,0.77
4408.00,0.77
4406.00,0.77
4404.00,0.77
4402.00,0.77
4400.00,0.77
4398.00,0.77
4396.00,0.78
4394.00,0.78
4392.00,0.78
4390.00,0.78
4388.00,0.78
4386.00,0.79
4384.00,0.79
4382.00,0.79
4380.00,0.79
4378.00,0.80
4376.00,0.80
4374.00,0.80
4372.00,0.80
4370.00,0.81
4368.00,0.81
4366.00,0.81
4364.00,0.81
4362.00,0.80
4360.00,0.80
4358.00,0.80
4356.00,0.79
4354.00,0.79
4352.00,0.79
4350.00,0.78
4348.00,0.78
4346.00,0.78
4344.00,0.78
4342.00,0.77
4340.00,0.77
4338.00,0.77
4336.00,0.77
4334.00,0.77
4332.00,0.78
4330.00,0.78
4328.00,0.78
4326.00,0.78
4324.00,0.79
4322.00,0.79
4320.00,0.80
4318.00,0.80
4316.00,0.81
4314.00,0.81
4312.00,0.81
4310.00,0.82
4308.00,0.82
4306.00,0.82
4304.00,0.83
4302.00,0.83
4300.00,0.83
4298.00,0.84
4296.00,0.84
4294.00,0.84
4292.00,0.84
4290.00,0.84
4288.00,0.84
4286.00,0.84
4284.00,0.85
4282.00,0.85
4280.00,0.85
4278.00,0.85
4276.00,0.85
4274.00,0.85
4272.00,0.85
4270.00,0.84
4268.00,0.84
4266.00,0.84
4264.00,0.84
4262.00,0.84
4260.00,0.83
4258.00,0.83
4256.00,0.83
4254.00,0.83
4252.00,0.83
4250.00,0.83
4248.00,0.83
4246.00,0.83
4244.00,0.83
4242.00,0.83
4240.00,0.84
4238.00,0.84
4236.00,0.84
4234.00,0.84
4232.00,0.84
4230.00,0.85
4228.00,0.85
4226.00,0.85
4224.00,0.85
4222.00,0.85
4220.00,0.85
4218.00,0.85
4216.00,0.85
4214.00,0.85
4212.00,0.85
4210.00,0.85
4208.00,0.85
4206.00,0.85
4204.00,0.85
4202.00,0.85
4200.00,0.85
4198.00,0.85
4196.00,0.85
4194.00,0.85
4192.00,0.85
4190.00,0.85
4188.00,0.85
4186.00,0.85
4184.00,0.85
4182.00,0.85
4180.00,0.85
4178.00,0.85
4176.00,0.85
4174.00,0.85
4172.00,0.85
4170.00,0.85
4168.00,0.85
4166.00,0.85
4164.00,0.85
4162.00,0.85
4160.00,0.85
4158.00,0.85
4156.00,0.85
4154.00,0.85
4152.00,0.85
4150.00,0.84
4148.00,0.84
4146.00,0.84
4144.00,0.84
4142.00,0.84
4140.00,0.84
4138.00,0.84
4136.00,0.84
4134.00,0.84
4132.00,0.85
4130.00,0.85
4128.00,0.85
4126.00,0.85
4124.00,0.85
4122.00,0.85
4120.00,0.85
4118.00,0.85
4116.00,0.85
4114.00,0.85
4112.00,0.85
4110.00,0.85
4108.00,0.85
4106.00,0.85
4104.00,0.85
4102.00,0.84
4100.00,0.84
4098.00,0.84
4096.00,0.84
4094.00,0.84
4092.00,0.84
4090.00,0.84
4088.00,0.84
4086.00,0.84
4084.00,0.84
4082.00,0.83
4080.00,0.83
4078.00,0.83
4076.00,0.83
4074.00,0.83
4072.00,0.83
4070.00,0.83
4068.00,0.83
4066.00,0.82
4064.00,0.82
4062.00,0.82
4060.00,0.82
4058.00,0.82
4056.00,0.82
4054.00,0.83
4052.00,0.83
4050.00,0.83
4048.00,0.83
4046.00,0.83
4044.00,0.83
4042.00,0.84
4040.00,0.84
4038.00,0.83
4036.00,0.83
4034.00,0.83
4032.00,0.84
4030.00,0.84
4028.00,0.84
4026.00,0.84
4024.00,0.84
4022.00,0.84
4020.00,0.84
4018.00,0.84
4016.00,0.83
4014.00,0.84
4012.00,0.84
4010.00,0.84
4008.00,0.84
4006.00,0.84
4004.00,0.85
4002.00,0.85
4000.00,0.85
