创建为新数据集,样品 1612 用户 Administrator 日期 星期日, 三月 12 2017
cm-1,%T
10000.00,0.91
9998.00,0.90
9996.00,0.90
9994.00,0.90
9992.00,0.90
9990.00,0.90
9988.00,0.90
9986.00,0.90
9984.00,0.90
9982.00,0.90
9980.00,0.90
9978.00,0.90
9976.00,0.89
9974.00,0.88
9972.00,0.88
9970.00,0.88
9968.00,0.87
9966.00,0.87
9964.00,0.87
9962.00,0.87
9960.00,0.87
9958.00,0.88
9956.00,0.88
9954.00,0.88
9952.00,0.88
9950.00,0.89
9948.00,0.89
9946.00,0.90
9944.00,0.90
9942.00,0.91
9940.00,0.91
9938.00,0.91
9936.00,0.91
9934.00,0.91
9932.00,0.90
9930.00,0.90
9928.00,0.90
9926.00,0.90
9924.00,0.90
9922.00,0.89
9920.00,0.89
9918.00,0.89
9916.00,0.89
9914.00,0.88
9912.00,0.88
9910.00,0.87
9908.00,0.87
9906.00,0.87
9904.00,0.87
9902.00,0.87
9900.00,0.87
9898.00,0.88
9896.00,0.88
9894.00,0.89
9892.00,0.89
9890.00,0.89
9888.00,0.89
9886.00,0.89
9884.00,0.89
9882.00,0.89
9880.00,0.89
9878.00,0.89
9876.00,0.89
9874.00,0.90
9872.00,0.90
9870.00,0.90
9868.00,0.90
9866.00,0.90
9864.00,0.90
9862.00,0.90
9860.00,0.90
9858.00,0.89
9856.00,0.89
9854.00,0.88
9852.00,0.88
9850.00,0.88
9848.00,0.88
9846.00,0.87
9844.00,0.87
9842.00,0.87
9840.00,0.87
9838.00,0.87
9836.00,0.87
9834.00,0.87
9832.00,0.87
9830.00,0.87
9828.00,0.86
9826.00,0.86
9824.00,0.87
9822.00,0.87
9820.00,0.87
9818.00,0.88
9816.00,0.88
9814.00,0.89
9812.00,0.89
9810.00,0.89
9808.00,0.89
9806.00,0.89
9804.00,0.89
9802.00,0.89
9800.00,0.89
9798.00,0.89
9796.00,0.90
9794.00,0.90
9792.00,0.90
9790.00,0.90
9788.00,0.90
9786.00,0.90
9784.00,0.90
9782.00,0.90
9780.00,0.90
9778.00,0.90
9776.00,0.90
9774.00,0.90
9772.00,0.90
9770.00,0.90
9768.00,0.90
9766.00,0.90
9764.00,0.90
9762.00,0.90
9760.00,0.90
9758.00,0.90
9756.00,0.90
9754.00,0.90
9752.00,0.91
9750.00,0.91
9748.00,0.91
9746.00,0.91
9744.00,0.91
9742.00,0.90
9740.00,0.90
9738.00,0.89
9736.00,0.88
9734.00,0.88
9732.00,0.87
9730.00,0.87
9728.00,0.87
9726.00,0.87
9724.00,0.87
9722.00,0.88
9720.00,0.89
9718.00,0.89
9716.00,0.89
9714.00,0.89
9712.00,0.89
9710.00,0.89
9708.00,0.89
9706.00,0.89
9704.00,0.88
9702.00,0.88
9700.00,0.89
9698.00,0.89
9696.00,0.90
9694.00,0.90
9692.00,0.91
9690.00,0.92
9688.00,0.92
9686.00,0.92
9684.00,0.93
9682.00,0.92
9680.00,0.92
9678.00,0.91
9676.00,0.91
9674.00,0.90
9672.00,0.90
9670.00,0.89
9668.00,0.89
9666.00,0.88
9664.00,0.88
9662.00,0.88
9660.00,0.88
9658.00,0.89
9656.00,0.89
9654.00,0.89
9652.00,0.89
9650.00,0.90
9648.00,0.90
9646.00,0.90
9644.00,0.90
9642.00,0.89
9640.00,0.89
9638.00,0.88
9636.00,0.88
9634.00,0.88
9632.00,0.88
9630.00,0.88
9628.00,0.88
9626.00,0.88
9624.00,0.89
9622.00,0.89
9620.00,0.89
9618.00,0.89
9616.00,0.88
9614.00,0.88
9612.00,0.88
9610.00,0.88
9608.00,0.87
9606.00,0.87
9604.00,0.87
9602.00,0.87
9600.00,0.87
9598.00,0.87
9596.00,0.87
9594.00,0.87
9592.00,0.87
9590.00,0.86
9588.00,0.86
9586.00,0.87
9584.00,0.87
9582.00,0.87
9580.00,0.87
9578.00,0.88
9576.00,0.88
9574.00,0.88
9572.00,0.88
9570.00,0.88
9568.00,0.88
9566.00,0.88
9564.00,0.88
9562.00,0.88
9560.00,0.88
9558.00,0.88
9556.00,0.88
9554.00,0.88
9552.00,0.88
9550.00,0.88
9548.00,0.87
9546.00,0.87
9544.00,0.87
9542.00,0.87
9540.00,0.87
9538.00,0.87
9536.00,0.87
9534.00,0.87
9532.00,0.88
9530.00,0.88
9528.00,0.89
9526.00,0.89
9524.00,0.90
9522.00,0.90
9520.00,0.90
9518.00,0.89
9516.00,0.89
9514.00,0.89
9512.00,0.88
9510.00,0.88
9508.00,0.87
9506.00,0.87
9504.00,0.87
9502.00,0.86
9500.00,0.87
9498.00,0.87
9496.00,0.87
9494.00,0.87
9492.00,0.88
9490.00,0.88
9488.00,0.88
9486.00,0.88
9484.00,0.88
9482.00,0.88
9480.00,0.88
9478.00,0.88
9476.00,0.89
9474.00,0.89
9472.00,0.90
9470.00,0.91
9468.00,0.91
9466.00,0.92
9464.00,0.92
9462.00,0.92
9460.00,0.92
9458.00,0.91
9456.00,0.91
9454.00,0.90
9452.00,0.90
9450.00,0.90
9448.00,0.89
9446.00,0.89
9444.00,0.88
9442.00,0.88
9440.00,0.88
9438.00,0.87
9436.00,0.88
9434.00,0.88
9432.00,0.88
9430.00,0.88
9428.00,0.89
9426.00,0.89
9424.00,0.90
9422.00,0.90
9420.00,0.90
9418.00,0.90
9416.00,0.90
9414.00,0.90
9412.00,0.89
9410.00,0.88
9408.00,0.88
9406.00,0.87
9404.00,0.87
9402.00,0.87
9400.00,0.87
9398.00,0.88
9396.00,0.88
9394.00,0.89
9392.00,0.89
9390.00,0.90
9388.00,0.90
9386.00,0.90
9384.00,0.90
9382.00,0.90
9380.00,0.90
9378.00,0.90
9376.00,0.90
9374.00,0.90
9372.00,0.90
9370.00,0.90
9368.00,0.90
9366.00,0.90
9364.00,0.90
9362.00,0.90
9360.00,0.90
9358.00,0.90
9356.00,0.90
9354.00,0.90
9352.00,0.90
9350.00,0.90
9348.00,0.90
9346.00,0.89
9344.00,0.89
9342.00,0.89
9340.00,0.88
9338.00,0.88
9336.00,0.88
9334.00,0.87
9332.00,0.87
9330.00,0.87
9328.00,0.87
9326.00,0.87
9324.00,0.88
9322.00,0.88
9320.00,0.88
9318.00,0.88
9316.00,0.88
9314.00,0.88
9312.00,0.89
9310.00,0.89
9308.00,0.89
9306.00,0.89
9304.00,0.89
9302.00,0.88
9300.00,0.88
9298.00,0.88
9296.00,0.87
9294.00,0.87
9292.00,0.87
9290.00,0.87
9288.00,0.87
9286.00,0.87
9284.00,0.87
9282.00,0.87
9280.00,0.88
9278.00,0.88
9276.00,0.88
9274.00,0.88
9272.00,0.88
9270.00,0.88
9268.00,0.88
9266.00,0.88
9264.00,0.88
9262.00,0.88
9260.00,0.88
9258.00,0.88
9256.00,0.88
9254.00,0.88
9252.00,0.89
9250.00,0.89
9248.00,0.89
9246.00,0.89
9244.00,0.90
9242.00,0.90
9240.00,0.90
9238.00,0.90
9236.00,0.89
9234.00,0.89
9232.00,0.89
9230.00,0.89
9228.00,0.89
9226.00,0.89
9224.00,0.89
9222.00,0.89
9220.00,0.89
9218.00,0.88
9216.00,0.88
9214.00,0.88
9212.00,0.87
9210.00,0.87
9208.00,0.87
9206.00,0.86
9204.00,0.86
9202.00,0.87
9200.00,0.87
9198.00,0.87
9196.00,0.87
9194.00,0.87
9192.00,0.87
9190.00,0.87
9188.00,0.87
9186.00,0.87
9184.00,0.86
9182.00,0.86
9180.00,0.86
9178.00,0.86
9176.00,0.86
9174.00,0.87
9172.00,0.87
9170.00,0.87
9168.00,0.88
9166.00,0.88
9164.00,0.88
9162.00,0.88
9160.00,0.88
9158.00,0.88
9156.00,0.88
9154.00,0.88
9152.00,0.89
9150.00,0.89
9148.00,0.89
9146.00,0.89
9144.00,0.89
9142.00,0.89
9140.00,0.89
9138.00,0.89
9136.00,0.88
9134.00,0.88
9132.00,0.88
9130.00,0.89
9128.00,0.89
9126.00,0.89
9124.00,0.89
9122.00,0.89
9120.00,0.89
9118.00,0.89
9116.00,0.89
9114.00,0.89
9112.00,0.89
9110.00,0.89
9108.00,0.89
9106.00,0.88
9104.00,0.88
9102.00,0.88
9100.00,0.88
9098.00,0.87
9096.00,0.87
9094.00,0.87
9092.00,0.87
9090.00,0.87
9088.00,0.87
9086.00,0.87
9084.00,0.88
9082.00,0.88
9080.00,0.89
9078.00,0.89
9076.00,0.89
9074.00,0.89
9072.00,0.89
9070.00,0.89
9068.00,0.89
9066.00,0.88
9064.00,0.88
9062.00,0.88
9060.00,0.88
9058.00,0.88
9056.00,0.88
9054.00,0.88
9052.00,0.88
9050.00,0.88
9048.00,0.89
9046.00,0.89
9044.00,0.90
9042.00,0.90
9040.00,0.90
9038.00,0.90
9036.00,0.89
9034.00,0.89
9032.00,0.88
9030.00,0.88
9028.00,0.87
9026.00,0.87
9024.00,0.87
9022.00,0.87
9020.00,0.87
9018.00,0.87
9016.00,0.87
9014.00,0.88
9012.00,0.88
9010.00,0.88
9008.00,0.89
9006.00,0.89
9004.00,0.89
9002.00,0.89
9000.00,0.89
8998.00,0.89
8996.00,0.89
8994.00,0.88
8992.00,0.88
8990.00,0.88
8988.00,0.87
8986.00,0.87
8984.00,0.87
8982.00,0.87
8980.00,0.87
8978.00,0.87
8976.00,0.87
8974.00,0.87
8972.00,0.87
8970.00,0.88
8968.00,0.88
8966.00,0.88
8964.00,0.88
8962.00,0.88
8960.00,0.88
8958.00,0.88
8956.00,0.88
8954.00,0.88
8952.00,0.88
8950.00,0.89
8948.00,0.89
8946.00,0.89
8944.00,0.89
8942.00,0.89
8940.00,0.89
8938.00,0.88
8936.00,0.88
8934.00,0.88
8932.00,0.88
8930.00,0.88
8928.00,0.88
8926.00,0.89
8924.00,0.89
8922.00,0.89
8920.00,0.89
8918.00,0.89
8916.00,0.89
8914.00,0.89
8912.00,0.88
8910.00,0.88
8908.00,0.88
8906.00,0.88
8904.00,0.87
8902.00,0.87
8900.00,0.87
8898.00,0.87
8896.00,0.87
8894.00,0.87
8892.00,0.87
8890.00,0.87
8888.00,0.87
8886.00,0.87
8884.00,0.88
8882.00,0.88
8880.00,0.88
8878.00,0.88
8876.00,0.88
8874.00,0.88
8872.00,0.88
8870.00,0.88
8868.00,0.89
8866.00,0.89
8864.00,0.89
8862.00,0.89
8860.00,0.90
8858.00,0.90
8856.00,0.90
8854.00,0.90
8852.00,0.90
8850.00,0.90
8848.00,0.89
8846.00,0.89
8844.00,0.89
8842.00,0.88
8840.00,0.88
8838.00,0.88
8836.00,0.88
8834.00,0.89
8832.00,0.89
8830.00,0.89
8828.00,0.89
8826.00,0.89
8824.00,0.89
8822.00,0.90
8820.00,0.90
8818.00,0.90
8816.00,0.91
8814.00,0.91
8812.00,0.91
8810.00,0.91
8808.00,0.91
8806.00,0.90
8804.00,0.90
8802.00,0.90
8800.00,0.90
8798.00,0.89
8796.00,0.89
8794.00,0.90
8792.00,0.90
8790.00,0.90
8788.00,0.90
8786.00,0.90
8784.00,0.90
8782.00,0.90
8780.00,0.89
8778.00,0.89
8776.00,0.89
8774.00,0.89
8772.00,0.89
8770.00,0.89
8768.00,0.89
8766.00,0.89
8764.00,0.89
8762.00,0.89
8760.00,0.89
8758.00,0.89
8756.00,0.89
8754.00,0.88
8752.00,0.88
8750.00,0.88
8748.00,0.88
8746.00,0.88
8744.00,0.89
8742.00,0.89
8740.00,0.89
8738.00,0.89
8736.00,0.88
8734.00,0.88
8732.00,0.88
8730.00,0.88
8728.00,0.87
8726.00,0.87
8724.00,0.87
8722.00,0.87
8720.00,0.87
8718.00,0.87
8716.00,0.87
8714.00,0.88
8712.00,0.88
8710.00,0.88
8708.00,0.89
8706.00,0.89
8704.00,0.89
8702.00,0.89
8700.00,0.89
8698.00,0.89
8696.00,0.89
8694.00,0.89
8692.00,0.88
8690.00,0.88
8688.00,0.88
8686.00,0.88
8684.00,0.88
8682.00,0.88
8680.00,0.89
8678.00,0.89
8676.00,0.89
8674.00,0.89
8672.00,0.89
8670.00,0.89
8668.00,0.89
8666.00,0.89
8664.00,0.89
8662.00,0.88
8660.00,0.88
8658.00,0.88
8656.00,0.88
8654.00,0.87
8652.00,0.87
8650.00,0.87
8648.00,0.87
8646.00,0.87
8644.00,0.88
8642.00,0.88
8640.00,0.88
8638.00,0.88
8636.00,0.87
8634.00,0.87
8632.00,0.87
8630.00,0.87
8628.00,0.87
8626.00,0.87
8624.00,0.87
8622.00,0.88
8620.00,0.88
8618.00,0.88
8616.00,0.89
8614.00,0.89
8612.00,0.89
8610.00,0.90
8608.00,0.90
8606.00,0.90
8604.00,0.90
8602.00,0.90
8600.00,0.90
8598.00,0.90
8596.00,0.90
8594.00,0.89
8592.00,0.89
8590.00,0.89
8588.00,0.88
8586.00,0.88
8584.00,0.88
8582.00,0.88
8580.00,0.88
8578.00,0.88
8576.00,0.88
8574.00,0.88
8572.00,0.89
8570.00,0.89
8568.00,0.89
8566.00,0.89
8564.00,0.89
8562.00,0.89
8560.00,0.89
8558.00,0.89
8556.00,0.89
8554.00,0.89
8552.00,0.89
8550.00,0.88
8548.00,0.88
8546.00,0.88
8544.00,0.88
8542.00,0.88
8540.00,0.88
8538.00,0.88
8536.00,0.88
8534.00,0.88
8532.00,0.87
8530.00,0.87
8528.00,0.87
8526.00,0.87
8524.00,0.87
8522.00,0.87
8520.00,0.87
8518.00,0.87
8516.00,0.88
8514.00,0.88
8512.00,0.88
8510.00,0.88
8508.00,0.88
8506.00,0.88
8504.00,0.88
8502.00,0.88
8500.00,0.89
8498.00,0.89
8496.00,0.89
8494.00,0.89
8492.00,0.89
8490.00,0.89
8488.00,0.89
8486.00,0.89
8484.00,0.89
8482.00,0.89
8480.00,0.89
8478.00,0.89
8476.00,0.89
8474.00,0.89
8472.00,0.89
8470.00,0.89
8468.00,0.88
8466.00,0.88
8464.00,0.88
8462.00,0.88
8460.00,0.88
8458.00,0.88
8456.00,0.88
8454.00,0.88
8452.00,0.88
8450.00,0.88
8448.00,0.88
8446.00,0.88
8444.00,0.88
8442.00,0.88
8440.00,0.88
8438.00,0.87
8436.00,0.87
8434.00,0.86
8432.00,0.86
8430.00,0.86
8428.00,0.86
8426.00,0.86
8424.00,0.87
8422.00,0.87
8420.00,0.87
8418.00,0.88
8416.00,0.88
8414.00,0.88
8412.00,0.88
8410.00,0.88
8408.00,0.88
8406.00,0.88
8404.00,0.88
8402.00,0.87
8400.00,0.87
8398.00,0.87
8396.00,0.88
8394.00,0.88
8392.00,0.88
8390.00,0.88
8388.00,0.88
8386.00,0.88
8384.00,0.88
8382.00,0.88
8380.00,0.88
8378.00,0.88
8376.00,0.88
8374.00,0.88
8372.00,0.88
8370.00,0.88
8368.00,0.88
8366.00,0.88
8364.00,0.88
8362.00,0.87
8360.00,0.87
8358.00,0.87
8356.00,0.87
8354.00,0.87
8352.00,0.87
8350.00,0.87
8348.00,0.88
8346.00,0.88
8344.00,0.88
8342.00,0.88
8340.00,0.88
8338.00,0.88
8336.00,0.88
8334.00,0.88
8332.00,0.88
8330.00,0.87
8328.00,0.87
8326.00,0.87
8324.00,0.87
8322.00,0.87
8320.00,0.88
8318.00,0.88
8316.00,0.88
8314.00,0.88
8312.00,0.88
8310.00,0.89
8308.00,0.89
8306.00,0.89
8304.00,0.89
8302.00,0.89
8300.00,0.89
8298.00,0.89
8296.00,0.89
8294.00,0.89
8292.00,0.89
8290.00,0.88
8288.00,0.88
8286.00,0.88
8284.00,0.87
8282.00,0.87
8280.00,0.87
8278.00,0.87
8276.00,0.88
8274.00,0.88
8272.00,0.88
8270.00,0.88
8268.00,0.88
8266.00,0.89
8264.00,0.89
8262.00,0.89
8260.00,0.89
8258.00,0.89
8256.00,0.89
8254.00,0.89
8252.00,0.89
8250.00,0.89
8248.00,0.89
8246.00,0.89
8244.00,0.89
8242.00,0.90
8240.00,0.90
8238.00,0.90
8236.00,0.90
8234.00,0.90
8232.00,0.90
8230.00,0.89
8228.00,0.89
8226.00,0.89
8224.00,0.88
8222.00,0.88
8220.00,0.88
8218.00,0.88
8216.00,0.88
8214.00,0.88
8212.00,0.88
8210.00,0.88
8208.00,0.88
8206.00,0.88
8204.00,0.88
8202.00,0.88
8200.00,0.88
8198.00,0.88
8196.00,0.88
8194.00,0.88
8192.00,0.88
8190.00,0.88
8188.00,0.88
8186.00,0.88
8184.00,0.88
8182.00,0.88
8180.00,0.88
8178.00,0.88
8176.00,0.88
8174.00,0.88
8172.00,0.88
8170.00,0.88
8168.00,0.88
8166.00,0.88
8164.00,0.88
8162.00,0.88
8160.00,0.88
8158.00,0.88
8156.00,0.88
8154.00,0.88
8152.00,0.88
8150.00,0.88
8148.00,0.89
8146.00,0.89
8144.00,0.89
8142.00,0.89
8140.00,0.89
8138.00,0.89
8136.00,0.89
8134.00,0.89
8132.00,0.88
8130.00,0.88
8128.00,0.88
8126.00,0.88
8124.00,0.88
8122.00,0.88
8120.00,0.88
8118.00,0.88
8116.00,0.88
8114.00,0.88
8112.00,0.88
8110.00,0.88
8108.00,0.88
8106.00,0.88
8104.00,0.88
8102.00,0.89
8100.00,0.89
8098.00,0.89
8096.00,0.90
8094.00,0.90
8092.00,0.90
8090.00,0.89
8088.00,0.89
8086.00,0.89
8084.00,0.89
8082.00,0.89
8080.00,0.89
8078.00,0.89
8076.00,0.89
8074.00,0.89
8072.00,0.89
8070.00,0.90
8068.00,0.90
8066.00,0.90
8064.00,0.90
8062.00,0.89
8060.00,0.89
8058.00,0.89
8056.00,0.89
8054.00,0.88
8052.00,0.88
8050.00,0.88
8048.00,0.88
8046.00,0.88
8044.00,0.89
8042.00,0.89
8040.00,0.89
8038.00,0.89
8036.00,0.89
8034.00,0.89
8032.00,0.89
8030.00,0.89
8028.00,0.89
8026.00,0.89
8024.00,0.89
8022.00,0.89
8020.00,0.89
8018.00,0.89
8016.00,0.88
8014.00,0.88
8012.00,0.88
8010.00,0.88
8008.00,0.89
8006.00,0.89
8004.00,0.89
8002.00,0.89
8000.00,0.89
7998.00,0.89
7996.00,0.89
7994.00,0.89
7992.00,0.89
7990.00,0.89
7988.00,0.89
7986.00,0.89
7984.00,0.89
7982.00,0.89
7980.00,0.89
7978.00,0.89
7976.00,0.89
7974.00,0.89
7972.00,0.89
7970.00,0.89
7968.00,0.89
7966.00,0.89
7964.00,0.89
7962.00,0.89
7960.00,0.89
7958.00,0.89
7956.00,0.90
7954.00,0.90
7952.00,0.90
7950.00,0.90
7948.00,0.90
7946.00,0.90
7944.00,0.90
7942.00,0.89
7940.00,0.89
7938.00,0.89
7936.00,0.89
7934.00,0.90
7932.00,0.90
7930.00,0.90
7928.00,0.90
7926.00,0.90
7924.00,0.90
7922.00,0.90
7920.00,0.90
7918.00,0.89
7916.00,0.89
7914.00,0.89
7912.00,0.88
7910.00,0.88
7908.00,0.88
7906.00,0.88
7904.00,0.88
7902.00,0.88
7900.00,0.89
7898.00,0.89
7896.00,0.89
7894.00,0.89
7892.00,0.89
7890.00,0.89
7888.00,0.89
7886.00,0.90
7884.00,0.90
7882.00,0.90
7880.00,0.90
7878.00,0.90
7876.00,0.90
7874.00,0.90
7872.00,0.90
7870.00,0.89
7868.00,0.89
7866.00,0.89
7864.00,0.89
7862.00,0.89
7860.00,0.89
7858.00,0.89
7856.00,0.89
7854.00,0.89
7852.00,0.90
7850.00,0.90
7848.00,0.90
7846.00,0.90
7844.00,0.90
7842.00,0.90
7840.00,0.90
7838.00,0.90
7836.00,0.90
7834.00,0.90
7832.00,0.90
7830.00,0.90
7828.00,0.90
7826.00,0.90
7824.00,0.90
7822.00,0.90
7820.00,0.90
7818.00,0.90
7816.00,0.90
7814.00,0.90
7812.00,0.90
7810.00,0.90
7808.00,0.89
7806.00,0.89
7804.00,0.89
7802.00,0.89
7800.00,0.88
7798.00,0.88
7796.00,0.88
7794.00,0.88
7792.00,0.88
7790.00,0.88
7788.00,0.88
7786.00,0.89
7784.00,0.89
7782.00,0.89
7780.00,0.89
7778.00,0.89
7776.00,0.89
7774.00,0.90
7772.00,0.90
7770.00,0.90
7768.00,0.90
7766.00,0.89
7764.00,0.89
7762.00,0.89
7760.00,0.89
7758.00,0.89
7756.00,0.89
7754.00,0.89
7752.00,0.89
7750.00,0.90
7748.00,0.90
7746.00,0.90
7744.00,0.90
7742.00,0.91
7740.00,0.91
7738.00,0.91
7736.00,0.91
7734.00,0.90
7732.00,0.90
7730.00,0.90
7728.00,0.90
7726.00,0.90
7724.00,0.90
7722.00,0.90
7720.00,0.90
7718.00,0.90
7716.00,0.90
7714.00,0.90
7712.00,0.90
7710.00,0.90
7708.00,0.90
7706.00,0.90
7704.00,0.90
7702.00,0.90
7700.00,0.90
7698.00,0.89
7696.00,0.89
7694.00,0.89
7692.00,0.89
7690.00,0.89
7688.00,0.89
7686.00,0.89
7684.00,0.89
7682.00,0.89
7680.00,0.89
7678.00,0.89
7676.00,0.89
7674.00,0.89
7672.00,0.89
7670.00,0.89
7668.00,0.89
7666.00,0.89
7664.00,0.89
7662.00,0.89
7660.00,0.89
7658.00,0.90
7656.00,0.90
7654.00,0.90
7652.00,0.90
7650.00,0.90
7648.00,0.90
7646.00,0.90
7644.00,0.90
7642.00,0.89
7640.00,0.89
7638.00,0.89
7636.00,0.89
7634.00,0.89
7632.00,0.89
7630.00,0.90
7628.00,0.90
7626.00,0.90
7624.00,0.90
7622.00,0.90
7620.00,0.90
7618.00,0.90
7616.00,0.90
7614.00,0.90
7612.00,0.90
7610.00,0.90
7608.00,0.89
7606.00,0.89
7604.00,0.89
7602.00,0.89
7600.00,0.90
7598.00,0.90
7596.00,0.90
7594.00,0.90
7592.00,0.90
7590.00,0.90
7588.00,0.90
7586.00,0.91
7584.00,0.91
7582.00,0.91
7580.00,0.91
7578.00,0.90
7576.00,0.90
7574.00,0.90
7572.00,0.90
7570.00,0.90
7568.00,0.90
7566.00,0.89
7564.00,0.89
7562.00,0.89
7560.00,0.89
7558.00,0.89
7556.00,0.89
7554.00,0.89
7552.00,0.89
7550.00,0.89
7548.00,0.89
7546.00,0.89
7544.00,0.89
7542.00,0.89
7540.00,0.89
7538.00,0.89
7536.00,0.89
7534.00,0.89
7532.00,0.89
7530.00,0.89
7528.00,0.89
7526.00,0.89
7524.00,0.89
7522.00,0.89
7520.00,0.89
7518.00,0.90
7516.00,0.90
7514.00,0.90
7512.00,0.90
7510.00,0.90
7508.00,0.90
7506.00,0.89
7504.00,0.89
7502.00,0.89
7500.00,0.89
7498.00,0.88
7496.00,0.88
7494.00,0.88
7492.00,0.88
7490.00,0.88
7488.00,0.88
7486.00,0.89
7484.00,0.89
7482.00,0.89
7480.00,0.89
7478.00,0.89
7476.00,0.89
7474.00,0.89
7472.00,0.89
7470.00,0.89
7468.00,0.89
7466.00,0.89
7464.00,0.89
7462.00,0.89
7460.00,0.89
7458.00,0.89
7456.00,0.90
7454.00,0.89
7452.00,0.89
7450.00,0.89
7448.00,0.89
7446.00,0.89
7444.00,0.89
7442.00,0.89
7440.00,0.89
7438.00,0.88
7436.00,0.89
7434.00,0.89
7432.00,0.89
7430.00,0.89
7428.00,0.89
7426.00,0.89
7424.00,0.89
7422.00,0.89
7420.00,0.89
7418.00,0.89
7416.00,0.89
7414.00,0.89
7412.00,0.89
7410.00,0.89
7408.00,0.89
7406.00,0.88
7404.00,0.88
7402.00,0.89
7400.00,0.89
7398.00,0.89
7396.00,0.89
7394.00,0.89
7392.00,0.90
7390.00,0.90
7388.00,0.90
7386.00,0.90
7384.00,0.90
7382.00,0.89
7380.00,0.89
7378.00,0.89
7376.00,0.89
7374.00,0.89
7372.00,0.89
7370.00,0.89
7368.00,0.89
7366.00,0.89
7364.00,0.89
7362.00,0.89
7360.00,0.89
7358.00,0.89
7356.00,0.89
7354.00,0.89
7352.00,0.89
7350.00,0.89
7348.00,0.89
7346.00,0.89
7344.00,0.89
7342.00,0.89
7340.00,0.89
7338.00,0.88
7336.00,0.88
7334.00,0.88
7332.00,0.88
7330.00,0.88
7328.00,0.88
7326.00,0.88
7324.00,0.88
7322.00,0.88
7320.00,0.88
7318.00,0.88
7316.00,0.87
7314.00,0.87
7312.00,0.87
7310.00,0.87
7308.00,0.87
7306.00,0.87
7304.00,0.88
7302.00,0.88
7300.00,0.88
7298.00,0.88
7296.00,0.88
7294.00,0.88
7292.00,0.88
7290.00,0.88
7288.00,0.88
7286.00,0.88
7284.00,0.88
7282.00,0.88
7280.00,0.88
7278.00,0.88
7276.00,0.88
7274.00,0.88
7272.00,0.88
7270.00,0.88
7268.00,0.88
7266.00,0.88
7264.00,0.88
7262.00,0.88
7260.00,0.88
7258.00,0.88
7256.00,0.88
7254.00,0.88
7252.00,0.88
7250.00,0.88
7248.00,0.88
7246.00,0.88
7244.00,0.87
7242.00,0.87
7240.00,0.87
7238.00,0.87
7236.00,0.87
7234.00,0.87
7232.00,0.87
7230.00,0.87
7228.00,0.86
7226.00,0.86
7224.00,0.86
7222.00,0.86
7220.00,0.86
7218.00,0.86
7216.00,0.86
7214.00,0.86
7212.00,0.86
7210.00,0.86
7208.00,0.86
7206.00,0.86
7204.00,0.86
7202.00,0.86
7200.00,0.86
7198.00,0.86
7196.00,0.86
7194.00,0.86
7192.00,0.86
7190.00,0.86
7188.00,0.86
7186.00,0.86
7184.00,0.86
7182.00,0.86
7180.00,0.86
7178.00,0.86
7176.00,0.86
7174.00,0.86
7172.00,0.86
7170.00,0.85
7168.00,0.85
7166.00,0.85
7164.00,0.85
7162.00,0.85
7160.00,0.85
7158.00,0.85
7156.00,0.85
7154.00,0.85
7152.00,0.85
7150.00,0.85
7148.00,0.85
7146.00,0.85
7144.00,0.85
7142.00,0.85
7140.00,0.84
7138.00,0.84
7136.00,0.84
7134.00,0.84
7132.00,0.84
7130.00,0.84
7128.00,0.84
7126.00,0.84
7124.00,0.83
7122.00,0.83
7120.00,0.83
7118.00,0.83
7116.00,0.83
7114.00,0.83
7112.00,0.83
7110.00,0.83
7108.00,0.83
7106.00,0.83
7104.00,0.83
7102.00,0.83
7100.00,0.83
7098.00,0.83
7096.00,0.83
7094.00,0.83
7092.00,0.83
7090.00,0.83
7088.00,0.83
7086.00,0.83
7084.00,0.83
7082.00,0.83
7080.00,0.83
7078.00,0.83
7076.00,0.83
7074.00,0.83
7072.00,0.83
7070.00,0.83
7068.00,0.83
7066.00,0.83
7064.00,0.83
7062.00,0.83
7060.00,0.83
7058.00,0.83
7056.00,0.83
7054.00,0.83
7052.00,0.83
7050.00,0.83
7048.00,0.83
7046.00,0.83
7044.00,0.82
7042.00,0.82
7040.00,0.82
7038.00,0.82
7036.00,0.82
7034.00,0.82
7032.00,0.82
7030.00,0.82
7028.00,0.82
7026.00,0.82
7024.00,0.82
7022.00,0.82
7020.00,0.81
7018.00,0.81
7016.00,0.81
7014.00,0.81
7012.00,0.81
7010.00,0.81
7008.00,0.81
7006.00,0.81
7004.00,0.82
7002.00,0.82
7000.00,0.82
6998.00,0.82
6996.00,0.82
6994.00,0.82
6992.00,0.82
6990.00,0.81
6988.00,0.82
6986.00,0.82
6984.00,0.82
6982.00,0.82
6980.00,0.82
6978.00,0.82
6976.00,0.82
6974.00,0.82
6972.00,0.82
6970.00,0.82
6968.00,0.82
6966.00,0.82
6964.00,0.82
6962.00,0.82
6960.00,0.82
6958.00,0.82
6956.00,0.82
6954.00,0.82
6952.00,0.82
6950.00,0.82
6948.00,0.81
6946.00,0.81
6944.00,0.81
6942.00,0.81
6940.00,0.81
6938.00,0.81
6936.00,0.81
6934.00,0.81
6932.00,0.81
6930.00,0.81
6928.00,0.81
6926.00,0.81
6924.00,0.81
6922.00,0.81
6920.00,0.81
6918.00,0.81
6916.00,0.81
6914.00,0.81
6912.00,0.81
6910.00,0.81
6908.00,0.81
6906.00,0.81
6904.00,0.81
6902.00,0.81
6900.00,0.81
6898.00,0.81
6896.00,0.81
6894.00,0.81
6892.00,0.81
6890.00,0.81
6888.00,0.81
6886.00,0.81
6884.00,0.81
6882.00,0.81
6880.00,0.81
6878.00,0.81
6876.00,0.81
6874.00,0.81
6872.00,0.81
6870.00,0.81
6868.00,0.81
6866.00,0.81
6864.00,0.81
6862.00,0.81
6860.00,0.81
6858.00,0.81
6856.00,0.81
6854.00,0.81
6852.00,0.81
6850.00,0.81
6848.00,0.81
6846.00,0.81
6844.00,0.81
6842.00,0.81
6840.00,0.81
6838.00,0.81
6836.00,0.81
6834.00,0.81
6832.00,0.81
6830.00,0.81
6828.00,0.81
6826.00,0.81
6824.00,0.81
6822.00,0.82
6820.00,0.82
6818.00,0.82
6816.00,0.82
6814.00,0.81
6812.00,0.81
6810.00,0.81
6808.00,0.81
6806.00,0.81
6804.00,0.81
6802.00,0.81
6800.00,0.81
6798.00,0.81
6796.00,0.81
6794.00,0.81
6792.00,0.81
6790.00,0.81
6788.00,0.81
6786.00,0.82
6784.00,0.82
6782.00,0.82
6780.00,0.82
6778.00,0.82
6776.00,0.82
6774.00,0.82
6772.00,0.82
6770.00,0.82
6768.00,0.82
6766.00,0.82
6764.00,0.82
6762.00,0.82
6760.00,0.82
6758.00,0.82
6756.00,0.82
6754.00,0.82
6752.00,0.82
6750.00,0.81
6748.00,0.81
6746.00,0.81
6744.00,0.81
6742.00,0.81
6740.00,0.81
6738.00,0.81
6736.00,0.82
6734.00,0.82
6732.00,0.82
6730.00,0.82
6728.00,0.82
6726.00,0.82
6724.00,0.82
6722.00,0.82
6720.00,0.82
6718.00,0.82
6716.00,0.82
6714.00,0.82
6712.00,0.82
6710.00,0.82
6708.00,0.82
6706.00,0.82
6704.00,0.82
6702.00,0.82
6700.00,0.82
6698.00,0.82
6696.00,0.82
6694.00,0.82
6692.00,0.82
6690.00,0.83
6688.00,0.83
6686.00,0.83
6684.00,0.83
6682.00,0.83
6680.00,0.83
6678.00,0.83
6676.00,0.83
6674.00,0.83
6672.00,0.83
6670.00,0.83
6668.00,0.83
6666.00,0.83
6664.00,0.83
6662.00,0.83
6660.00,0.83
6658.00,0.83
6656.00,0.83
6654.00,0.83
6652.00,0.83
6650.00,0.83
6648.00,0.83
6646.00,0.83
6644.00,0.83
6642.00,0.83
6640.00,0.83
6638.00,0.83
6636.00,0.83
6634.00,0.83
6632.00,0.84
6630.00,0.84
6628.00,0.84
6626.00,0.84
6624.00,0.84
6622.00,0.84
6620.00,0.84
6618.00,0.84
6616.00,0.84
6614.00,0.84
6612.00,0.85
6610.00,0.85
6608.00,0.85
6606.00,0.85
6604.00,0.85
6602.00,0.85
6600.00,0.85
6598.00,0.84
6596.00,0.84
6594.00,0.84
6592.00,0.84
6590.00,0.84
6588.00,0.84
6586.00,0.84
6584.00,0.84
6582.00,0.84
6580.00,0.84
6578.00,0.84
6576.00,0.85
6574.00,0.85
6572.00,0.85
6570.00,0.85
6568.00,0.85
6566.00,0.85
6564.00,0.85
6562.00,0.85
6560.00,0.85
6558.00,0.85
6556.00,0.85
6554.00,0.85
6552.00,0.85
6550.00,0.85
6548.00,0.85
6546.00,0.85
6544.00,0.85
6542.00,0.85
6540.00,0.85
6538.00,0.85
6536.00,0.85
6534.00,0.85
6532.00,0.85
6530.00,0.85
6528.00,0.86
6526.00,0.86
6524.00,0.85
6522.00,0.85
6520.00,0.85
6518.00,0.85
6516.00,0.85
6514.00,0.85
6512.00,0.85
6510.00,0.85
6508.00,0.86
6506.00,0.86
6504.00,0.86
6502.00,0.86
6500.00,0.86
6498.00,0.86
6496.00,0.86
6494.00,0.85
6492.00,0.85
6490.00,0.85
6488.00,0.85
6486.00,0.85
6484.00,0.86
6482.00,0.86
6480.00,0.86
6478.00,0.86
6476.00,0.86
6474.00,0.86
6472.00,0.86
6470.00,0.86
6468.00,0.86
6466.00,0.86
6464.00,0.86
6462.00,0.86
6460.00,0.86
6458.00,0.86
6456.00,0.86
6454.00,0.86
6452.00,0.86
6450.00,0.86
6448.00,0.86
6446.00,0.86
6444.00,0.86
6442.00,0.86
6440.00,0.86
6438.00,0.86
6436.00,0.86
6434.00,0.86
6432.00,0.86
6430.00,0.86
6428.00,0.86
6426.00,0.86
6424.00,0.86
6422.00,0.86
6420.00,0.86
6418.00,0.86
6416.00,0.86
6414.00,0.86
6412.00,0.86
6410.00,0.86
6408.00,0.86
6406.00,0.86
6404.00,0.86
6402.00,0.86
6400.00,0.86
6398.00,0.86
6396.00,0.86
6394.00,0.86
6392.00,0.86
6390.00,0.86
6388.00,0.86
6386.00,0.86
6384.00,0.86
6382.00,0.86
6380.00,0.86
6378.00,0.86
6376.00,0.86
6374.00,0.86
6372.00,0.86
6370.00,0.86
6368.00,0.86
6366.00,0.86
6364.00,0.86
6362.00,0.86
6360.00,0.86
6358.00,0.86
6356.00,0.86
6354.00,0.87
6352.00,0.87
6350.00,0.87
6348.00,0.87
6346.00,0.87
6344.00,0.87
6342.00,0.87
6340.00,0.87
6338.00,0.86
6336.00,0.86
6334.00,0.86
6332.00,0.86
6330.00,0.86
6328.00,0.86
6326.00,0.86
6324.00,0.86
6322.00,0.87
6320.00,0.87
6318.00,0.87
6316.00,0.87
6314.00,0.87
6312.00,0.87
6310.00,0.87
6308.00,0.87
6306.00,0.87
6304.00,0.87
6302.00,0.87
6300.00,0.87
6298.00,0.87
6296.00,0.87
6294.00,0.87
6292.00,0.87
6290.00,0.87
6288.00,0.87
6286.00,0.87
6284.00,0.87
6282.00,0.87
6280.00,0.87
6278.00,0.87
6276.00,0.87
6274.00,0.87
6272.00,0.87
6270.00,0.87
6268.00,0.87
6266.00,0.87
6264.00,0.87
6262.00,0.87
6260.00,0.88
6258.00,0.88
6256.00,0.88
6254.00,0.88
6252.00,0.88
6250.00,0.87
6248.00,0.87
6246.00,0.87
6244.00,0.87
6242.00,0.87
6240.00,0.87
6238.00,0.87
6236.00,0.87
6234.00,0.87
6232.00,0.87
6230.00,0.87
6228.00,0.87
6226.00,0.87
6224.00,0.87
6222.00,0.88
6220.00,0.88
6218.00,0.88
6216.00,0.88
6214.00,0.88
6212.00,0.88
6210.00,0.88
6208.00,0.88
6206.00,0.88
6204.00,0.88
6202.00,0.88
6200.00,0.88
6198.00,0.88
6196.00,0.88
6194.00,0.88
6192.00,0.88
6190.00,0.88
6188.00,0.88
6186.00,0.88
6184.00,0.88
6182.00,0.88
6180.00,0.88
6178.00,0.88
6176.00,0.88
6174.00,0.88
6172.00,0.88
6170.00,0.88
6168.00,0.88
6166.00,0.88
6164.00,0.89
6162.00,0.89
6160.00,0.89
6158.00,0.89
6156.00,0.89
6154.00,0.89
6152.00,0.89
6150.00,0.89
6148.00,0.89
6146.00,0.89
6144.00,0.89
6142.00,0.89
6140.00,0.89
6138.00,0.89
6136.00,0.89
6134.00,0.89
6132.00,0.89
6130.00,0.89
6128.00,0.89
6126.00,0.89
6124.00,0.89
6122.00,0.89
6120.00,0.90
6118.00,0.90
6116.00,0.90
6114.00,0.90
6112.00,0.90
6110.00,0.90
6108.00,0.90
6106.00,0.89
6104.00,0.89
6102.00,0.89
6100.00,0.89
6098.00,0.89
6096.00,0.89
6094.00,0.89
6092.00,0.89
6090.00,0.89
6088.00,0.90
6086.00,0.90
6084.00,0.90
6082.00,0.90
6080.00,0.90
6078.00,0.90
6076.00,0.90
6074.00,0.90
6072.00,0.90
6070.00,0.90
6068.00,0.90
6066.00,0.90
6064.00,0.90
6062.00,0.89
6060.00,0.89
6058.00,0.89
6056.00,0.89
6054.00,0.90
6052.00,0.90
6050.00,0.90
6048.00,0.90
6046.00,0.90
6044.00,0.90
6042.00,0.90
6040.00,0.90
6038.00,0.90
6036.00,0.90
6034.00,0.90
6032.00,0.90
6030.00,0.90
6028.00,0.90
6026.00,0.90
6024.00,0.90
6022.00,0.90
6020.00,0.90
6018.00,0.90
6016.00,0.90
6014.00,0.90
6012.00,0.90
6010.00,0.90
6008.00,0.90
6006.00,0.90
6004.00,0.90
6002.00,0.90
6000.00,0.90
5998.00,0.90
5996.00,0.90
5994.00,0.90
5992.00,0.90
5990.00,0.90
5988.00,0.90
5986.00,0.90
5984.00,0.90
5982.00,0.90
5980.00,0.90
5978.00,0.90
5976.00,0.90
5974.00,0.89
5972.00,0.89
5970.00,0.89
5968.00,0.89
5966.00,0.89
5964.00,0.89
5962.00,0.89
5960.00,0.88
5958.00,0.88
5956.00,0.88
5954.00,0.88
5952.00,0.88
5950.00,0.88
5948.00,0.88
5946.00,0.88
5944.00,0.88
5942.00,0.88
5940.00,0.88
5938.00,0.88
5936.00,0.87
5934.00,0.87
5932.00,0.87
5930.00,0.87
5928.00,0.87
5926.00,0.87
5924.00,0.87
5922.00,0.87
5920.00,0.87
5918.00,0.87
5916.00,0.87
5914.00,0.87
5912.00,0.87
5910.00,0.87
5908.00,0.87
5906.00,0.87
5904.00,0.87
5902.00,0.87
5900.00,0.87
5898.00,0.87
5896.00,0.87
5894.00,0.87
5892.00,0.87
5890.00,0.87
5888.00,0.87
5886.00,0.87
5884.00,0.87
5882.00,0.87
5880.00,0.87
5878.00,0.87
5876.00,0.87
5874.00,0.88
5872.00,0.88
5870.00,0.88
5868.00,0.88
5866.00,0.88
5864.00,0.88
5862.00,0.88
5860.00,0.88
5858.00,0.88
5856.00,0.88
5854.00,0.88
5852.00,0.88
5850.00,0.88
5848.00,0.88
5846.00,0.88
5844.00,0.88
5842.00,0.88
5840.00,0.88
5838.00,0.88
5836.00,0.88
5834.00,0.88
5832.00,0.88
5830.00,0.88
5828.00,0.88
5826.00,0.88
5824.00,0.88
5822.00,0.88
5820.00,0.88
5818.00,0.88
5816.00,0.88
5814.00,0.88
5812.00,0.88
5810.00,0.88
5808.00,0.88
5806.00,0.88
5804.00,0.88
5802.00,0.88
5800.00,0.88
5798.00,0.88
5796.00,0.88
5794.00,0.88
5792.00,0.88
5790.00,0.88
5788.00,0.88
5786.00,0.88
5784.00,0.88
5782.00,0.88
5780.00,0.88
5778.00,0.88
5776.00,0.88
5774.00,0.88
5772.00,0.88
5770.00,0.88
5768.00,0.88
5766.00,0.88
5764.00,0.88
5762.00,0.88
5760.00,0.88
5758.00,0.88
5756.00,0.88
5754.00,0.88
5752.00,0.88
5750.00,0.88
5748.00,0.88
5746.00,0.88
5744.00,0.88
5742.00,0.88
5740.00,0.88
5738.00,0.88
5736.00,0.88
5734.00,0.88
5732.00,0.88
5730.00,0.88
5728.00,0.88
5726.00,0.88
5724.00,0.88
5722.00,0.88
5720.00,0.88
5718.00,0.89
5716.00,0.89
5714.00,0.89
5712.00,0.89
5710.00,0.89
5708.00,0.89
5706.00,0.89
5704.00,0.89
5702.00,0.89
5700.00,0.88
5698.00,0.88
5696.00,0.88
5694.00,0.88
5692.00,0.88
5690.00,0.88
5688.00,0.88
5686.00,0.88
5684.00,0.88
5682.00,0.88
5680.00,0.88
5678.00,0.88
5676.00,0.88
5674.00,0.88
5672.00,0.88
5670.00,0.88
5668.00,0.88
5666.00,0.88
5664.00,0.88
5662.00,0.88
5660.00,0.88
5658.00,0.88
5656.00,0.89
5654.00,0.89
5652.00,0.89
5650.00,0.89
5648.00,0.89
5646.00,0.89
5644.00,0.89
5642.00,0.89
5640.00,0.89
5638.00,0.89
5636.00,0.89
5634.00,0.89
5632.00,0.89
5630.00,0.89
5628.00,0.89
5626.00,0.89
5624.00,0.89
5622.00,0.89
5620.00,0.89
5618.00,0.89
5616.00,0.89
5614.00,0.89
5612.00,0.89
5610.00,0.89
5608.00,0.89
5606.00,0.89
5604.00,0.89
5602.00,0.89
5600.00,0.89
5598.00,0.89
5596.00,0.89
5594.00,0.89
5592.00,0.89
5590.00,0.89
5588.00,0.90
5586.00,0.90
5584.00,0.90
5582.00,0.90
5580.00,0.90
5578.00,0.90
5576.00,0.90
5574.00,0.90
5572.00,0.90
5570.00,0.90
5568.00,0.90
5566.00,0.90
5564.00,0.90
5562.00,0.90
5560.00,0.90
5558.00,0.90
5556.00,0.90
5554.00,0.90
5552.00,0.90
5550.00,0.90
5548.00,0.90
5546.00,0.90
5544.00,0.90
5542.00,0.90
5540.00,0.90
5538.00,0.90
5536.00,0.90
5534.00,0.90
5532.00,0.90
5530.00,0.90
5528.00,0.90
5526.00,0.90
5524.00,0.90
5522.00,0.90
5520.00,0.90
5518.00,0.90
5516.00,0.90
5514.00,0.90
5512.00,0.90
5510.00,0.90
5508.00,0.90
5506.00,0.90
5504.00,0.90
5502.00,0.90
5500.00,0.90
5498.00,0.90
5496.00,0.90
5494.00,0.90
5492.00,0.90
5490.00,0.90
5488.00,0.90
5486.00,0.90
5484.00,0.90
5482.00,0.90
5480.00,0.90
5478.00,0.90
5476.00,0.90
5474.00,0.90
5472.00,0.90
5470.00,0.90
5468.00,0.90
5466.00,0.90
5464.00,0.90
5462.00,0.90
5460.00,0.90
5458.00,0.90
5456.00,0.90
5454.00,0.90
5452.00,0.90
5450.00,0.90
5448.00,0.90
5446.00,0.90
5444.00,0.90
5442.00,0.90
5440.00,0.90
5438.00,0.90
5436.00,0.90
5434.00,0.90
5432.00,0.90
5430.00,0.90
5428.00,0.90
5426.00,0.90
5424.00,0.90
5422.00,0.90
5420.00,0.90
5418.00,0.90
5416.00,0.90
5414.00,0.90
5412.00,0.90
5410.00,0.90
5408.00,0.90
5406.00,0.90
5404.00,0.90
5402.00,0.90
5400.00,0.90
5398.00,0.90
5396.00,0.90
5394.00,0.90
5392.00,0.90
5390.00,0.90
5388.00,0.90
5386.00,0.90
5384.00,0.90
5382.00,0.90
5380.00,0.90
5378.00,0.90
5376.00,0.90
5374.00,0.90
5372.00,0.90
5370.00,0.90
5368.00,0.90
5366.00,0.90
5364.00,0.90
5362.00,0.90
5360.00,0.90
5358.00,0.89
5356.00,0.89
5354.00,0.89
5352.00,0.89
5350.00,0.89
5348.00,0.88
5346.00,0.88
5344.00,0.88
5342.00,0.88
5340.00,0.88
5338.00,0.88
5336.00,0.87
5334.00,0.87
5332.00,0.87
5330.00,0.87
5328.00,0.87
5326.00,0.86
5324.00,0.86
5322.00,0.86
5320.00,0.86
5318.00,0.85
5316.00,0.85
5314.00,0.85
5312.00,0.85
5310.00,0.84
5308.00,0.84
5306.00,0.83
5304.00,0.83
5302.00,0.83
5300.00,0.82
5298.00,0.82
5296.00,0.81
5294.00,0.81
5292.00,0.81
5290.00,0.80
5288.00,0.80
5286.00,0.80
5284.00,0.80
5282.00,0.80
5280.00,0.79
5278.00,0.79
5276.00,0.79
5274.00,0.79
5272.00,0.78
5270.00,0.78
5268.00,0.78
5266.00,0.77
5264.00,0.77
5262.00,0.77
5260.00,0.77
5258.00,0.76
5256.00,0.76
5254.00,0.76
5252.00,0.76
5250.00,0.76
5248.00,0.75
5246.00,0.75
5244.00,0.75
5242.00,0.75
5240.00,0.75
5238.00,0.74
5236.00,0.74
5234.00,0.74
5232.00,0.74
5230.00,0.74
5228.00,0.73
5226.00,0.73
5224.00,0.73
5222.00,0.73
5220.00,0.73
5218.00,0.73
5216.00,0.73
5214.00,0.73
5212.00,0.73
5210.00,0.72
5208.00,0.72
5206.00,0.72
5204.00,0.72
5202.00,0.72
5200.00,0.72
5198.00,0.72
5196.00,0.72
5194.00,0.72
5192.00,0.71
5190.00,0.71
5188.00,0.71
5186.00,0.71
5184.00,0.71
5182.00,0.71
5180.00,0.71
5178.00,0.71
5176.00,0.71
5174.00,0.71
5172.00,0.71
5170.00,0.71
5168.00,0.71
5166.00,0.71
5164.00,0.71
5162.00,0.71
5160.00,0.72
5158.00,0.72
5156.00,0.72
5154.00,0.72
5152.00,0.72
5150.00,0.72
5148.00,0.72
5146.00,0.72
5144.00,0.72
5142.00,0.72
5140.00,0.72
5138.00,0.72
5136.00,0.72
5134.00,0.72
5132.00,0.72
5130.00,0.73
5128.00,0.73
5126.00,0.73
5124.00,0.73
5122.00,0.73
5120.00,0.73
5118.00,0.73
5116.00,0.73
5114.00,0.73
5112.00,0.74
5110.00,0.74
5108.00,0.74
5106.00,0.74
5104.00,0.74
5102.00,0.74
5100.00,0.74
5098.00,0.74
5096.00,0.75
5094.00,0.75
5092.00,0.75
5090.00,0.75
5088.00,0.75
5086.00,0.75
5084.00,0.75
5082.00,0.76
5080.00,0.76
5078.00,0.76
5076.00,0.76
5074.00,0.76
5072.00,0.76
5070.00,0.76
5068.00,0.76
5066.00,0.76
5064.00,0.77
5062.00,0.77
5060.00,0.77
5058.00,0.77
5056.00,0.77
5054.00,0.77
5052.00,0.77
5050.00,0.78
5048.00,0.78
5046.00,0.78
5044.00,0.78
5042.00,0.78
5040.00,0.78
5038.00,0.78
5036.00,0.78
5034.00,0.78
5032.00,0.79
5030.00,0.79
5028.00,0.79
5026.00,0.79
5024.00,0.79
5022.00,0.79
5020.00,0.80
5018.00,0.80
5016.00,0.80
5014.00,0.80
5012.00,0.80
5010.00,0.80
5008.00,0.80
5006.00,0.80
5004.00,0.80
5002.00,0.80
5000.00,0.81
4998.00,0.81
4996.00,0.81
4994.00,0.81
4992.00,0.81
4990.00,0.81
4988.00,0.81
4986.00,0.81
4984.00,0.81
4982.00,0.81
4980.00,0.81
4978.00,0.82
4976.00,0.82
4974.00,0.82
4972.00,0.82
4970.00,0.82
4968.00,0.82
4966.00,0.82
4964.00,0.82
4962.00,0.82
4960.00,0.82
4958.00,0.82
4956.00,0.82
4954.00,0.82
4952.00,0.83
4950.00,0.83
4948.00,0.83
4946.00,0.83
4944.00,0.83
4942.00,0.83
4940.00,0.83
4938.00,0.83
4936.00,0.83
4934.00,0.83
4932.00,0.83
4930.00,0.83
4928.00,0.83
4926.00,0.83
4924.00,0.83
4922.00,0.83
4920.00,0.83
4918.00,0.84
4916.00,0.84
4914.00,0.84
4912.00,0.84
4910.00,0.84
4908.00,0.84
4906.00,0.84
4904.00,0.84
4902.00,0.84
4900.00,0.84
4898.00,0.84
4896.00,0.84
4894.00,0.84
4892.00,0.84
4890.00,0.84
4888.00,0.84
4886.00,0.84
4884.00,0.84
4882.00,0.84
4880.00,0.84
4878.00,0.84
4876.00,0.84
4874.00,0.84
4872.00,0.84
4870.00,0.84
4868.00,0.84
4866.00,0.84
4864.00,0.84
4862.00,0.84
4860.00,0.85
4858.00,0.85
4856.00,0.85
4854.00,0.85
4852.00,0.85
4850.00,0.85
4848.00,0.85
4846.00,0.85
4844.00,0.85
4842.00,0.85
4840.00,0.85
4838.00,0.85
4836.00,0.85
4834.00,0.85
4832.00,0.85
4830.00,0.85
4828.00,0.85
4826.00,0.85
4824.00,0.85
4822.00,0.85
4820.00,0.85
4818.00,0.85
4816.00,0.85
4814.00,0.85
4812.00,0.85
4810.00,0.85
4808.00,0.86
4806.00,0.86
4804.00,0.86
4802.00,0.86
4800.00,0.86
4798.00,0.86
4796.00,0.86
4794.00,0.86
4792.00,0.86
4790.00,0.86
4788.00,0.86
4786.00,0.86
4784.00,0.86
4782.00,0.86
4780.00,0.86
4778.00,0.86
4776.00,0.86
4774.00,0.86
4772.00,0.86
4770.00,0.86
4768.00,0.87
4766.00,0.87
4764.00,0.87
4762.00,0.87
4760.00,0.87
4758.00,0.87
4756.00,0.87
4754.00,0.87
4752.00,0.87
4750.00,0.87
4748.00,0.87
4746.00,0.87
4744.00,0.88
4742.00,0.88
4740.00,0.88
4738.00,0.88
4736.00,0.88
4734.00,0.88
4732.00,0.88
4730.00,0.88
4728.00,0.88
4726.00,0.88
4724.00,0.88
4722.00,0.88
4720.00,0.88
4718.00,0.88
4716.00,0.88
4714.00,0.88
4712.00,0.88
4710.00,0.88
4708.00,0.88
4706.00,0.88
4704.00,0.88
4702.00,0.88
4700.00,0.89
4698.00,0.89
4696.00,0.89
4694.00,0.89
4692.00,0.89
4690.00,0.89
4688.00,0.89
4686.00,0.89
4684.00,0.89
4682.00,0.89
4680.00,0.89
4678.00,0.89
4676.00,0.89
4674.00,0.89
4672.00,0.89
4670.00,0.89
4668.00,0.89
4666.00,0.89
4664.00,0.90
4662.00,0.90
4660.00,0.90
4658.00,0.90
4656.00,0.90
4654.00,0.90
4652.00,0.89
4650.00,0.89
4648.00,0.89
4646.00,0.89
4644.00,0.89
4642.00,0.89
4640.00,0.90
4638.00,0.90
4636.00,0.90
4634.00,0.90
4632.00,0.90
4630.00,0.90
4628.00,0.90
4626.00,0.90
4624.00,0.90
4622.00,0.90
4620.00,0.90
4618.00,0.90
4616.00,0.90
4614.00,0.90
4612.00,0.90
4610.00,0.90
4608.00,0.90
4606.00,0.90
4604.00,0.90
4602.00,0.90
4600.00,0.90
4598.00,0.90
4596.00,0.90
4594.00,0.90
4592.00,0.90
4590.00,0.90
4588.00,0.90
4586.00,0.90
4584.00,0.90
4582.00,0.90
4580.00,0.90
4578.00,0.90
4576.00,0.90
4574.00,0.90
4572.00,0.90
4570.00,0.90
4568.00,0.90
4566.00,0.90
4564.00,0.90
4562.00,0.90
4560.00,0.90
4558.00,0.90
4556.00,0.90
4554.00,0.90
4552.00,0.90
4550.00,0.90
4548.00,0.90
4546.00,0.90
4544.00,0.90
4542.00,0.90
4540.00,0.90
4538.00,0.90
4536.00,0.90
4534.00,0.90
4532.00,0.91
4530.00,0.91
4528.00,0.91
4526.00,0.90
4524.00,0.90
4522.00,0.90
4520.00,0.90
4518.00,0.90
4516.00,0.90
4514.00,0.90
4512.00,0.90
4510.00,0.90
4508.00,0.90
4506.00,0.90
4504.00,0.90
4502.00,0.90
4500.00,0.90
4498.00,0.90
4496.00,0.90
4494.00,0.90
4492.00,0.90
4490.00,0.90
4488.00,0.90
4486.00,0.90
4484.00,0.90
4482.00,0.90
4480.00,0.91
4478.00,0.91
4476.00,0.91
4474.00,0.90
4472.00,0.90
4470.00,0.90
4468.00,0.90
4466.00,0.90
4464.00,0.90
4462.00,0.90
4460.00,0.90
4458.00,0.90
4456.00,0.90
4454.00,0.89
4452.00,0.89
4450.00,0.89
4448.00,0.89
4446.00,0.88
4444.00,0.88
4442.00,0.88
4440.00,0.88
4438.00,0.87
4436.00,0.87
4434.00,0.87
4432.00,0.86
4430.00,0.86
4428.00,0.86
4426.00,0.85
4424.00,0.85
4422.00,0.85
4420.00,0.84
4418.00,0.84
4416.00,0.84
4414.00,0.84
4412.00,0.84
4410.00,0.84
4408.00,0.84
4406.00,0.84
4404.00,0.84
4402.00,0.84
4400.00,0.84
4398.00,0.84
4396.00,0.84
4394.00,0.85
4392.00,0.85
4390.00,0.85
4388.00,0.85
4386.00,0.86
4384.00,0.86
4382.00,0.86
4380.00,0.86
4378.00,0.86
4376.00,0.87
4374.00,0.87
4372.00,0.87
4370.00,0.87
4368.00,0.87
4366.00,0.87
4364.00,0.87
4362.00,0.86
4360.00,0.86
4358.00,0.86
4356.00,0.85
4354.00,0.85
4352.00,0.84
4350.00,0.84
4348.00,0.84
4346.00,0.84
4344.00,0.83
4342.00,0.83
4340.00,0.83
4338.00,0.84
4336.00,0.84
4334.00,0.84
4332.00,0.84
4330.00,0.84
4328.00,0.85
4326.00,0.85
4324.00,0.85
4322.00,0.86
4320.00,0.86
4318.00,0.86
4316.00,0.87
4314.00,0.87
4312.00,0.87
4310.00,0.88
4308.00,0.88
4306.00,0.88
4304.00,0.89
4302.00,0.89
4300.00,0.89
4298.00,0.89
4296.00,0.89
4294.00,0.90
4292.00,0.90
4290.00,0.90
4288.00,0.90
4286.00,0.90
4284.00,0.90
4282.00,0.90
4280.00,0.90
4278.00,0.90
4276.00,0.90
4274.00,0.90
4272.00,0.90
4270.00,0.90
4268.00,0.89
4266.00,0.89
4264.00,0.89
4262.00,0.89
4260.00,0.89
4258.00,0.89
4256.00,0.88
4254.00,0.88
4252.00,0.88
4250.00,0.88
4248.00,0.88
4246.00,0.88
4244.00,0.89
4242.00,0.89
4240.00,0.89
4238.00,0.89
4236.00,0.90
4234.00,0.90
4232.00,0.90
4230.00,0.90
4228.00,0.90
4226.00,0.90
4224.00,0.90
4222.00,0.90
4220.00,0.90
4218.00,0.90
4216.00,0.90
4214.00,0.90
4212.00,0.90
4210.00,0.90
4208.00,0.90
4206.00,0.90
4204.00,0.90
4202.00,0.90
4200.00,0.90
4198.00,0.90
4196.00,0.90
4194.00,0.90
4192.00,0.90
4190.00,0.90
4188.00,0.91
4186.00,0.91
4184.00,0.91
4182.00,0.91
4180.00,0.91
4178.00,0.90
4176.00,0.90
4174.00,0.90
4172.00,0.90
4170.00,0.90
4168.00,0.90
4166.00,0.90
4164.00,0.90
4162.00,0.90
4160.00,0.90
4158.00,0.90
4156.00,0.90
4154.00,0.90
4152.00,0.90
4150.00,0.90
4148.00,0.90
4146.00,0.90
4144.00,0.90
4142.00,0.90
4140.00,0.90
4138.00,0.90
4136.00,0.90
4134.00,0.90
4132.00,0.90
4130.00,0.90
4128.00,0.90
4126.00,0.90
4124.00,0.90
4122.00,0.90
4120.00,0.90
4118.00,0.90
4116.00,0.90
4114.00,0.91
4112.00,0.91
4110.00,0.91
4108.00,0.91
4106.00,0.90
4104.00,0.90
4102.00,0.90
4100.00,0.90
4098.00,0.89
4096.00,0.89
4094.00,0.89
4092.00,0.89
4090.00,0.89
4088.00,0.89
4086.00,0.89
4084.00,0.89
4082.00,0.89
4080.00,0.89
4078.00,0.89
4076.00,0.89
4074.00,0.89
4072.00,0.89
4070.00,0.89
4068.00,0.89
4066.00,0.89
4064.00,0.89
4062.00,0.89
4060.00,0.89
4058.00,0.89
4056.00,0.89
4054.00,0.89
4052.00,0.89
4050.00,0.89
4048.00,0.90
4046.00,0.90
4044.00,0.90
4042.00,0.90
4040.00,0.90
4038.00,0.90
4036.00,0.90
4034.00,0.90
4032.00,0.90
4030.00,0.90
4028.00,0.89
4026.00,0.89
4024.00,0.89
4022.00,0.90
4020.00,0.90
4018.00,0.90
4016.00,0.90
4014.00,0.90
4012.00,0.90
4010.00,0.91
4008.00,0.91
4006.00,0.91
4004.00,0.91
4002.00,0.91
4000.00,0.91
