创建为新数据集,样品 1711 用户 Administrator 日期 星期三, 三月 15 2017
cm-1,%T
10000.00,0.85
9998.00,0.85
9996.00,0.84
9994.00,0.84
9992.00,0.84
9990.00,0.84
9988.00,0.83
9986.00,0.83
9984.00,0.83
9982.00,0.83
9980.00,0.83
9978.00,0.83
9976.00,0.83
9974.00,0.84
9972.00,0.84
9970.00,0.84
9968.00,0.83
9966.00,0.83
9964.00,0.83
9962.00,0.83
9960.00,0.83
9958.00,0.83
9956.00,0.83
9954.00,0.83
9952.00,0.83
9950.00,0.83
9948.00,0.83
9946.00,0.83
9944.00,0.83
9942.00,0.83
9940.00,0.83
9938.00,0.83
9936.00,0.83
9934.00,0.83
9932.00,0.83
9930.00,0.84
9928.00,0.84
9926.00,0.84
9924.00,0.84
9922.00,0.83
9920.00,0.83
9918.00,0.82
9916.00,0.82
9914.00,0.81
9912.00,0.81
9910.00,0.81
9908.00,0.82
9906.00,0.82
9904.00,0.82
9902.00,0.82
9900.00,0.83
9898.00,0.83
9896.00,0.83
9894.00,0.83
9892.00,0.84
9890.00,0.84
9888.00,0.84
9886.00,0.85
9884.00,0.85
9882.00,0.85
9880.00,0.85
9878.00,0.84
9876.00,0.84
9874.00,0.84
9872.00,0.83
9870.00,0.83
9868.00,0.82
9866.00,0.82
9864.00,0.81
9862.00,0.81
9860.00,0.81
9858.00,0.81
9856.00,0.82
9854.00,0.82
9852.00,0.82
9850.00,0.83
9848.00,0.83
9846.00,0.84
9844.00,0.84
9842.00,0.84
9840.00,0.84
9838.00,0.84
9836.00,0.84
9834.00,0.84
9832.00,0.83
9830.00,0.83
9828.00,0.82
9826.00,0.82
9824.00,0.81
9822.00,0.81
9820.00,0.81
9818.00,0.81
9816.00,0.81
9814.00,0.82
9812.00,0.82
9810.00,0.82
9808.00,0.82
9806.00,0.82
9804.00,0.82
9802.00,0.82
9800.00,0.82
9798.00,0.82
9796.00,0.81
9794.00,0.81
9792.00,0.81
9790.00,0.80
9788.00,0.80
9786.00,0.80
9784.00,0.80
9782.00,0.81
9780.00,0.81
9778.00,0.81
9776.00,0.82
9774.00,0.82
9772.00,0.82
9770.00,0.82
9768.00,0.82
9766.00,0.82
9764.00,0.81
9762.00,0.81
9760.00,0.81
9758.00,0.80
9756.00,0.80
9754.00,0.80
9752.00,0.80
9750.00,0.80
9748.00,0.80
9746.00,0.80
9744.00,0.80
9742.00,0.80
9740.00,0.80
9738.00,0.81
9736.00,0.81
9734.00,0.82
9732.00,0.82
9730.00,0.82
9728.00,0.83
9726.00,0.83
9724.00,0.83
9722.00,0.83
9720.00,0.83
9718.00,0.83
9716.00,0.83
9714.00,0.83
9712.00,0.83
9710.00,0.84
9708.00,0.84
9706.00,0.84
9704.00,0.84
9702.00,0.84
9700.00,0.84
9698.00,0.84
9696.00,0.84
9694.00,0.83
9692.00,0.83
9690.00,0.83
9688.00,0.83
9686.00,0.83
9684.00,0.83
9682.00,0.83
9680.00,0.83
9678.00,0.83
9676.00,0.83
9674.00,0.83
9672.00,0.83
9670.00,0.83
9668.00,0.82
9666.00,0.82
9664.00,0.82
9662.00,0.82
9660.00,0.82
9658.00,0.81
9656.00,0.81
9654.00,0.82
9652.00,0.82
9650.00,0.82
9648.00,0.82
9646.00,0.82
9644.00,0.82
9642.00,0.82
9640.00,0.82
9638.00,0.82
9636.00,0.82
9634.00,0.82
9632.00,0.82
9630.00,0.82
9628.00,0.82
9626.00,0.82
9624.00,0.82
9622.00,0.82
9620.00,0.82
9618.00,0.82
9616.00,0.81
9614.00,0.81
9612.00,0.81
9610.00,0.81
9608.00,0.81
9606.00,0.81
9604.00,0.81
9602.00,0.81
9600.00,0.81
9598.00,0.82
9596.00,0.82
9594.00,0.82
9592.00,0.82
9590.00,0.82
9588.00,0.82
9586.00,0.82
9584.00,0.82
9582.00,0.82
9580.00,0.82
9578.00,0.82
9576.00,0.82
9574.00,0.82
9572.00,0.83
9570.00,0.83
9568.00,0.83
9566.00,0.84
9564.00,0.84
9562.00,0.85
9560.00,0.85
9558.00,0.85
9556.00,0.85
9554.00,0.85
9552.00,0.85
9550.00,0.84
9548.00,0.84
9546.00,0.84
9544.00,0.84
9542.00,0.84
9540.00,0.84
9538.00,0.83
9536.00,0.83
9534.00,0.82
9532.00,0.81
9530.00,0.81
9528.00,0.80
9526.00,0.80
9524.00,0.80
9522.00,0.80
9520.00,0.80
9518.00,0.80
9516.00,0.80
9514.00,0.80
9512.00,0.80
9510.00,0.81
9508.00,0.81
9506.00,0.81
9504.00,0.81
9502.00,0.81
9500.00,0.81
9498.00,0.81
9496.00,0.81
9494.00,0.81
9492.00,0.82
9490.00,0.82
9488.00,0.82
9486.00,0.82
9484.00,0.82
9482.00,0.82
9480.00,0.83
9478.00,0.83
9476.00,0.83
9474.00,0.83
9472.00,0.83
9470.00,0.83
9468.00,0.83
9466.00,0.82
9464.00,0.82
9462.00,0.82
9460.00,0.81
9458.00,0.81
9456.00,0.81
9454.00,0.80
9452.00,0.81
9450.00,0.81
9448.00,0.81
9446.00,0.81
9444.00,0.82
9442.00,0.82
9440.00,0.83
9438.00,0.83
9436.00,0.83
9434.00,0.83
9432.00,0.83
9430.00,0.83
9428.00,0.83
9426.00,0.82
9424.00,0.82
9422.00,0.82
9420.00,0.81
9418.00,0.81
9416.00,0.81
9414.00,0.80
9412.00,0.80
9410.00,0.81
9408.00,0.81
9406.00,0.81
9404.00,0.81
9402.00,0.82
9400.00,0.82
9398.00,0.82
9396.00,0.82
9394.00,0.81
9392.00,0.81
9390.00,0.81
9388.00,0.81
9386.00,0.81
9384.00,0.81
9382.00,0.81
9380.00,0.81
9378.00,0.81
9376.00,0.82
9374.00,0.82
9372.00,0.82
9370.00,0.82
9368.00,0.82
9366.00,0.82
9364.00,0.82
9362.00,0.81
9360.00,0.81
9358.00,0.81
9356.00,0.80
9354.00,0.80
9352.00,0.80
9350.00,0.81
9348.00,0.81
9346.00,0.81
9344.00,0.82
9342.00,0.82
9340.00,0.82
9338.00,0.82
9336.00,0.82
9334.00,0.82
9332.00,0.82
9330.00,0.82
9328.00,0.82
9326.00,0.82
9324.00,0.82
9322.00,0.82
9320.00,0.82
9318.00,0.81
9316.00,0.81
9314.00,0.81
9312.00,0.81
9310.00,0.81
9308.00,0.81
9306.00,0.81
9304.00,0.82
9302.00,0.82
9300.00,0.82
9298.00,0.81
9296.00,0.81
9294.00,0.81
9292.00,0.81
9290.00,0.82
9288.00,0.82
9286.00,0.82
9284.00,0.82
9282.00,0.82
9280.00,0.82
9278.00,0.82
9276.00,0.82
9274.00,0.81
9272.00,0.81
9270.00,0.81
9268.00,0.81
9266.00,0.81
9264.00,0.81
9262.00,0.82
9260.00,0.82
9258.00,0.82
9256.00,0.82
9254.00,0.82
9252.00,0.82
9250.00,0.82
9248.00,0.82
9246.00,0.82
9244.00,0.82
9242.00,0.82
9240.00,0.82
9238.00,0.82
9236.00,0.82
9234.00,0.82
9232.00,0.82
9230.00,0.82
9228.00,0.82
9226.00,0.82
9224.00,0.83
9222.00,0.83
9220.00,0.83
9218.00,0.83
9216.00,0.83
9214.00,0.83
9212.00,0.83
9210.00,0.83
9208.00,0.83
9206.00,0.83
9204.00,0.83
9202.00,0.83
9200.00,0.82
9198.00,0.82
9196.00,0.82
9194.00,0.82
9192.00,0.81
9190.00,0.81
9188.00,0.81
9186.00,0.81
9184.00,0.81
9182.00,0.81
9180.00,0.81
9178.00,0.81
9176.00,0.81
9174.00,0.81
9172.00,0.81
9170.00,0.81
9168.00,0.81
9166.00,0.81
9164.00,0.82
9162.00,0.82
9160.00,0.82
9158.00,0.82
9156.00,0.83
9154.00,0.83
9152.00,0.83
9150.00,0.83
9148.00,0.82
9146.00,0.82
9144.00,0.82
9142.00,0.82
9140.00,0.82
9138.00,0.82
9136.00,0.82
9134.00,0.82
9132.00,0.82
9130.00,0.82
9128.00,0.82
9126.00,0.82
9124.00,0.82
9122.00,0.82
9120.00,0.82
9118.00,0.82
9116.00,0.82
9114.00,0.81
9112.00,0.81
9110.00,0.81
9108.00,0.81
9106.00,0.81
9104.00,0.81
9102.00,0.81
9100.00,0.81
9098.00,0.81
9096.00,0.81
9094.00,0.82
9092.00,0.82
9090.00,0.82
9088.00,0.83
9086.00,0.83
9084.00,0.83
9082.00,0.83
9080.00,0.83
9078.00,0.83
9076.00,0.82
9074.00,0.82
9072.00,0.82
9070.00,0.82
9068.00,0.82
9066.00,0.81
9064.00,0.82
9062.00,0.82
9060.00,0.82
9058.00,0.82
9056.00,0.83
9054.00,0.83
9052.00,0.83
9050.00,0.83
9048.00,0.83
9046.00,0.83
9044.00,0.83
9042.00,0.83
9040.00,0.83
9038.00,0.84
9036.00,0.84
9034.00,0.84
9032.00,0.84
9030.00,0.84
9028.00,0.84
9026.00,0.83
9024.00,0.83
9022.00,0.83
9020.00,0.83
9018.00,0.83
9016.00,0.82
9014.00,0.82
9012.00,0.82
9010.00,0.82
9008.00,0.82
9006.00,0.82
9004.00,0.82
9002.00,0.83
9000.00,0.83
8998.00,0.83
8996.00,0.83
8994.00,0.83
8992.00,0.83
8990.00,0.83
8988.00,0.83
8986.00,0.83
8984.00,0.83
8982.00,0.82
8980.00,0.82
8978.00,0.82
8976.00,0.81
8974.00,0.81
8972.00,0.81
8970.00,0.82
8968.00,0.82
8966.00,0.82
8964.00,0.82
8962.00,0.82
8960.00,0.82
8958.00,0.82
8956.00,0.82
8954.00,0.82
8952.00,0.82
8950.00,0.82
8948.00,0.82
8946.00,0.82
8944.00,0.82
8942.00,0.82
8940.00,0.83
8938.00,0.83
8936.00,0.83
8934.00,0.83
8932.00,0.83
8930.00,0.83
8928.00,0.83
8926.00,0.83
8924.00,0.83
8922.00,0.82
8920.00,0.82
8918.00,0.82
8916.00,0.82
8914.00,0.82
8912.00,0.82
8910.00,0.82
8908.00,0.83
8906.00,0.83
8904.00,0.82
8902.00,0.82
8900.00,0.82
8898.00,0.82
8896.00,0.82
8894.00,0.82
8892.00,0.82
8890.00,0.82
8888.00,0.82
8886.00,0.82
8884.00,0.82
8882.00,0.82
8880.00,0.83
8878.00,0.83
8876.00,0.83
8874.00,0.83
8872.00,0.83
8870.00,0.83
8868.00,0.83
8866.00,0.82
8864.00,0.82
8862.00,0.82
8860.00,0.82
8858.00,0.82
8856.00,0.82
8854.00,0.82
8852.00,0.82
8850.00,0.82
8848.00,0.82
8846.00,0.82
8844.00,0.82
8842.00,0.82
8840.00,0.82
8838.00,0.83
8836.00,0.83
8834.00,0.83
8832.00,0.83
8830.00,0.83
8828.00,0.83
8826.00,0.83
8824.00,0.83
8822.00,0.82
8820.00,0.82
8818.00,0.82
8816.00,0.82
8814.00,0.82
8812.00,0.82
8810.00,0.82
8808.00,0.82
8806.00,0.82
8804.00,0.82
8802.00,0.82
8800.00,0.82
8798.00,0.82
8796.00,0.82
8794.00,0.83
8792.00,0.83
8790.00,0.83
8788.00,0.83
8786.00,0.83
8784.00,0.83
8782.00,0.83
8780.00,0.83
8778.00,0.83
8776.00,0.82
8774.00,0.82
8772.00,0.82
8770.00,0.82
8768.00,0.82
8766.00,0.83
8764.00,0.83
8762.00,0.83
8760.00,0.83
8758.00,0.83
8756.00,0.83
8754.00,0.83
8752.00,0.82
8750.00,0.82
8748.00,0.82
8746.00,0.82
8744.00,0.82
8742.00,0.82
8740.00,0.82
8738.00,0.82
8736.00,0.82
8734.00,0.82
8732.00,0.82
8730.00,0.82
8728.00,0.82
8726.00,0.83
8724.00,0.83
8722.00,0.83
8720.00,0.83
8718.00,0.83
8716.00,0.83
8714.00,0.83
8712.00,0.83
8710.00,0.82
8708.00,0.82
8706.00,0.82
8704.00,0.82
8702.00,0.82
8700.00,0.82
8698.00,0.81
8696.00,0.81
8694.00,0.81
8692.00,0.81
8690.00,0.81
8688.00,0.81
8686.00,0.81
8684.00,0.81
8682.00,0.82
8680.00,0.82
8678.00,0.82
8676.00,0.82
8674.00,0.82
8672.00,0.82
8670.00,0.82
8668.00,0.82
8666.00,0.82
8664.00,0.83
8662.00,0.83
8660.00,0.83
8658.00,0.82
8656.00,0.82
8654.00,0.82
8652.00,0.82
8650.00,0.82
8648.00,0.82
8646.00,0.82
8644.00,0.82
8642.00,0.82
8640.00,0.82
8638.00,0.82
8636.00,0.82
8634.00,0.82
8632.00,0.83
8630.00,0.83
8628.00,0.83
8626.00,0.83
8624.00,0.83
8622.00,0.83
8620.00,0.83
8618.00,0.83
8616.00,0.83
8614.00,0.83
8612.00,0.83
8610.00,0.83
8608.00,0.83
8606.00,0.82
8604.00,0.82
8602.00,0.83
8600.00,0.83
8598.00,0.83
8596.00,0.83
8594.00,0.83
8592.00,0.83
8590.00,0.82
8588.00,0.82
8586.00,0.82
8584.00,0.82
8582.00,0.82
8580.00,0.82
8578.00,0.82
8576.00,0.82
8574.00,0.82
8572.00,0.81
8570.00,0.81
8568.00,0.81
8566.00,0.81
8564.00,0.81
8562.00,0.81
8560.00,0.81
8558.00,0.81
8556.00,0.82
8554.00,0.82
8552.00,0.82
8550.00,0.82
8548.00,0.82
8546.00,0.82
8544.00,0.81
8542.00,0.81
8540.00,0.81
8538.00,0.81
8536.00,0.80
8534.00,0.80
8532.00,0.80
8530.00,0.80
8528.00,0.81
8526.00,0.81
8524.00,0.81
8522.00,0.81
8520.00,0.81
8518.00,0.82
8516.00,0.82
8514.00,0.81
8512.00,0.81
8510.00,0.81
8508.00,0.81
8506.00,0.81
8504.00,0.81
8502.00,0.81
8500.00,0.81
8498.00,0.81
8496.00,0.81
8494.00,0.81
8492.00,0.82
8490.00,0.82
8488.00,0.82
8486.00,0.82
8484.00,0.82
8482.00,0.82
8480.00,0.82
8478.00,0.82
8476.00,0.81
8474.00,0.81
8472.00,0.81
8470.00,0.80
8468.00,0.80
8466.00,0.80
8464.00,0.80
8462.00,0.80
8460.00,0.80
8458.00,0.80
8456.00,0.80
8454.00,0.81
8452.00,0.81
8450.00,0.81
8448.00,0.81
8446.00,0.81
8444.00,0.81
8442.00,0.81
8440.00,0.81
8438.00,0.81
8436.00,0.81
8434.00,0.81
8432.00,0.81
8430.00,0.80
8428.00,0.80
8426.00,0.80
8424.00,0.81
8422.00,0.81
8420.00,0.81
8418.00,0.81
8416.00,0.81
8414.00,0.81
8412.00,0.81
8410.00,0.81
8408.00,0.81
8406.00,0.81
8404.00,0.81
8402.00,0.81
8400.00,0.81
8398.00,0.82
8396.00,0.82
8394.00,0.82
8392.00,0.82
8390.00,0.82
8388.00,0.83
8386.00,0.83
8384.00,0.83
8382.00,0.83
8380.00,0.82
8378.00,0.82
8376.00,0.82
8374.00,0.82
8372.00,0.82
8370.00,0.82
8368.00,0.82
8366.00,0.83
8364.00,0.83
8362.00,0.83
8360.00,0.83
8358.00,0.83
8356.00,0.83
8354.00,0.83
8352.00,0.83
8350.00,0.83
8348.00,0.83
8346.00,0.82
8344.00,0.82
8342.00,0.82
8340.00,0.81
8338.00,0.81
8336.00,0.81
8334.00,0.80
8332.00,0.80
8330.00,0.80
8328.00,0.80
8326.00,0.81
8324.00,0.81
8322.00,0.81
8320.00,0.81
8318.00,0.81
8316.00,0.81
8314.00,0.81
8312.00,0.82
8310.00,0.82
8308.00,0.82
8306.00,0.82
8304.00,0.82
8302.00,0.82
8300.00,0.81
8298.00,0.81
8296.00,0.81
8294.00,0.81
8292.00,0.81
8290.00,0.81
8288.00,0.81
8286.00,0.81
8284.00,0.81
8282.00,0.81
8280.00,0.81
8278.00,0.81
8276.00,0.81
8274.00,0.81
8272.00,0.81
8270.00,0.81
8268.00,0.81
8266.00,0.81
8264.00,0.81
8262.00,0.81
8260.00,0.82
8258.00,0.82
8256.00,0.82
8254.00,0.82
8252.00,0.82
8250.00,0.82
8248.00,0.82
8246.00,0.82
8244.00,0.82
8242.00,0.82
8240.00,0.82
8238.00,0.82
8236.00,0.82
8234.00,0.82
8232.00,0.82
8230.00,0.82
8228.00,0.82
8226.00,0.82
8224.00,0.82
8222.00,0.81
8220.00,0.81
8218.00,0.81
8216.00,0.81
8214.00,0.81
8212.00,0.81
8210.00,0.81
8208.00,0.80
8206.00,0.80
8204.00,0.80
8202.00,0.80
8200.00,0.80
8198.00,0.80
8196.00,0.80
8194.00,0.81
8192.00,0.81
8190.00,0.81
8188.00,0.81
8186.00,0.82
8184.00,0.82
8182.00,0.82
8180.00,0.82
8178.00,0.82
8176.00,0.82
8174.00,0.82
8172.00,0.82
8170.00,0.82
8168.00,0.82
8166.00,0.82
8164.00,0.82
8162.00,0.81
8160.00,0.81
8158.00,0.81
8156.00,0.81
8154.00,0.81
8152.00,0.82
8150.00,0.82
8148.00,0.82
8146.00,0.82
8144.00,0.82
8142.00,0.82
8140.00,0.82
8138.00,0.82
8136.00,0.82
8134.00,0.82
8132.00,0.83
8130.00,0.83
8128.00,0.83
8126.00,0.83
8124.00,0.83
8122.00,0.83
8120.00,0.83
8118.00,0.83
8116.00,0.83
8114.00,0.83
8112.00,0.83
8110.00,0.83
8108.00,0.83
8106.00,0.82
8104.00,0.82
8102.00,0.82
8100.00,0.82
8098.00,0.82
8096.00,0.82
8094.00,0.82
8092.00,0.82
8090.00,0.82
8088.00,0.82
8086.00,0.82
8084.00,0.83
8082.00,0.83
8080.00,0.83
8078.00,0.83
8076.00,0.83
8074.00,0.83
8072.00,0.83
8070.00,0.83
8068.00,0.83
8066.00,0.83
8064.00,0.83
8062.00,0.83
8060.00,0.82
8058.00,0.82
8056.00,0.82
8054.00,0.82
8052.00,0.82
8050.00,0.83
8048.00,0.83
8046.00,0.83
8044.00,0.83
8042.00,0.83
8040.00,0.83
8038.00,0.83
8036.00,0.83
8034.00,0.83
8032.00,0.83
8030.00,0.83
8028.00,0.83
8026.00,0.83
8024.00,0.83
8022.00,0.83
8020.00,0.83
8018.00,0.83
8016.00,0.83
8014.00,0.83
8012.00,0.83
8010.00,0.82
8008.00,0.82
8006.00,0.82
8004.00,0.82
8002.00,0.82
8000.00,0.82
7998.00,0.82
7996.00,0.82
7994.00,0.82
7992.00,0.82
7990.00,0.83
7988.00,0.83
7986.00,0.83
7984.00,0.83
7982.00,0.83
7980.00,0.83
7978.00,0.83
7976.00,0.83
7974.00,0.82
7972.00,0.82
7970.00,0.82
7968.00,0.83
7966.00,0.83
7964.00,0.83
7962.00,0.83
7960.00,0.83
7958.00,0.83
7956.00,0.83
7954.00,0.83
7952.00,0.83
7950.00,0.83
7948.00,0.83
7946.00,0.83
7944.00,0.83
7942.00,0.83
7940.00,0.83
7938.00,0.83
7936.00,0.83
7934.00,0.83
7932.00,0.83
7930.00,0.84
7928.00,0.84
7926.00,0.84
7924.00,0.83
7922.00,0.83
7920.00,0.83
7918.00,0.83
7916.00,0.82
7914.00,0.82
7912.00,0.82
7910.00,0.82
7908.00,0.82
7906.00,0.81
7904.00,0.82
7902.00,0.82
7900.00,0.82
7898.00,0.82
7896.00,0.82
7894.00,0.82
7892.00,0.82
7890.00,0.82
7888.00,0.83
7886.00,0.83
7884.00,0.83
7882.00,0.83
7880.00,0.83
7878.00,0.84
7876.00,0.84
7874.00,0.84
7872.00,0.84
7870.00,0.84
7868.00,0.84
7866.00,0.84
7864.00,0.84
7862.00,0.84
7860.00,0.84
7858.00,0.84
7856.00,0.84
7854.00,0.83
7852.00,0.83
7850.00,0.83
7848.00,0.83
7846.00,0.83
7844.00,0.83
7842.00,0.83
7840.00,0.83
7838.00,0.83
7836.00,0.84
7834.00,0.84
7832.00,0.84
7830.00,0.84
7828.00,0.84
7826.00,0.84
7824.00,0.84
7822.00,0.84
7820.00,0.83
7818.00,0.83
7816.00,0.83
7814.00,0.83
7812.00,0.83
7810.00,0.83
7808.00,0.83
7806.00,0.83
7804.00,0.83
7802.00,0.83
7800.00,0.83
7798.00,0.83
7796.00,0.83
7794.00,0.83
7792.00,0.83
7790.00,0.83
7788.00,0.83
7786.00,0.83
7784.00,0.83
7782.00,0.83
7780.00,0.83
7778.00,0.83
7776.00,0.83
7774.00,0.83
7772.00,0.83
7770.00,0.83
7768.00,0.83
7766.00,0.83
7764.00,0.83
7762.00,0.83
7760.00,0.83
7758.00,0.83
7756.00,0.83
7754.00,0.83
7752.00,0.83
7750.00,0.83
7748.00,0.83
7746.00,0.83
7744.00,0.83
7742.00,0.83
7740.00,0.83
7738.00,0.83
7736.00,0.83
7734.00,0.83
7732.00,0.83
7730.00,0.83
7728.00,0.83
7726.00,0.83
7724.00,0.83
7722.00,0.83
7720.00,0.83
7718.00,0.84
7716.00,0.84
7714.00,0.84
7712.00,0.84
7710.00,0.84
7708.00,0.84
7706.00,0.84
7704.00,0.84
7702.00,0.84
7700.00,0.83
7698.00,0.83
7696.00,0.83
7694.00,0.83
7692.00,0.83
7690.00,0.83
7688.00,0.83
7686.00,0.83
7684.00,0.83
7682.00,0.83
7680.00,0.83
7678.00,0.83
7676.00,0.83
7674.00,0.83
7672.00,0.83
7670.00,0.83
7668.00,0.83
7666.00,0.83
7664.00,0.83
7662.00,0.83
7660.00,0.83
7658.00,0.83
7656.00,0.83
7654.00,0.83
7652.00,0.83
7650.00,0.83
7648.00,0.83
7646.00,0.83
7644.00,0.83
7642.00,0.84
7640.00,0.84
7638.00,0.84
7636.00,0.84
7634.00,0.84
7632.00,0.84
7630.00,0.84
7628.00,0.83
7626.00,0.83
7624.00,0.84
7622.00,0.84
7620.00,0.84
7618.00,0.84
7616.00,0.84
7614.00,0.84
7612.00,0.84
7610.00,0.84
7608.00,0.84
7606.00,0.84
7604.00,0.84
7602.00,0.84
7600.00,0.83
7598.00,0.83
7596.00,0.83
7594.00,0.83
7592.00,0.83
7590.00,0.83
7588.00,0.83
7586.00,0.83
7584.00,0.84
7582.00,0.84
7580.00,0.84
7578.00,0.84
7576.00,0.84
7574.00,0.84
7572.00,0.84
7570.00,0.84
7568.00,0.84
7566.00,0.84
7564.00,0.84
7562.00,0.84
7560.00,0.83
7558.00,0.83
7556.00,0.83
7554.00,0.83
7552.00,0.83
7550.00,0.83
7548.00,0.83
7546.00,0.83
7544.00,0.83
7542.00,0.83
7540.00,0.83
7538.00,0.83
7536.00,0.83
7534.00,0.83
7532.00,0.83
7530.00,0.83
7528.00,0.83
7526.00,0.83
7524.00,0.83
7522.00,0.83
7520.00,0.83
7518.00,0.83
7516.00,0.84
7514.00,0.84
7512.00,0.84
7510.00,0.84
7508.00,0.84
7506.00,0.84
7504.00,0.83
7502.00,0.83
7500.00,0.83
7498.00,0.83
7496.00,0.83
7494.00,0.83
7492.00,0.83
7490.00,0.83
7488.00,0.83
7486.00,0.83
7484.00,0.83
7482.00,0.83
7480.00,0.83
7478.00,0.83
7476.00,0.83
7474.00,0.83
7472.00,0.83
7470.00,0.83
7468.00,0.83
7466.00,0.84
7464.00,0.83
7462.00,0.83
7460.00,0.83
7458.00,0.83
7456.00,0.83
7454.00,0.83
7452.00,0.83
7450.00,0.82
7448.00,0.82
7446.00,0.82
7444.00,0.82
7442.00,0.82
7440.00,0.82
7438.00,0.82
7436.00,0.82
7434.00,0.82
7432.00,0.82
7430.00,0.83
7428.00,0.83
7426.00,0.83
7424.00,0.83
7422.00,0.83
7420.00,0.83
7418.00,0.83
7416.00,0.83
7414.00,0.83
7412.00,0.83
7410.00,0.83
7408.00,0.83
7406.00,0.83
7404.00,0.82
7402.00,0.82
7400.00,0.82
7398.00,0.82
7396.00,0.82
7394.00,0.82
7392.00,0.82
7390.00,0.82
7388.00,0.82
7386.00,0.82
7384.00,0.82
7382.00,0.82
7380.00,0.81
7378.00,0.81
7376.00,0.81
7374.00,0.81
7372.00,0.81
7370.00,0.81
7368.00,0.81
7366.00,0.81
7364.00,0.81
7362.00,0.81
7360.00,0.81
7358.00,0.81
7356.00,0.81
7354.00,0.81
7352.00,0.81
7350.00,0.81
7348.00,0.81
7346.00,0.81
7344.00,0.81
7342.00,0.81
7340.00,0.81
7338.00,0.81
7336.00,0.81
7334.00,0.81
7332.00,0.81
7330.00,0.81
7328.00,0.82
7326.00,0.82
7324.00,0.82
7322.00,0.82
7320.00,0.82
7318.00,0.82
7316.00,0.81
7314.00,0.81
7312.00,0.81
7310.00,0.81
7308.00,0.81
7306.00,0.81
7304.00,0.81
7302.00,0.81
7300.00,0.81
7298.00,0.81
7296.00,0.81
7294.00,0.81
7292.00,0.81
7290.00,0.81
7288.00,0.81
7286.00,0.81
7284.00,0.81
7282.00,0.81
7280.00,0.81
7278.00,0.81
7276.00,0.81
7274.00,0.80
7272.00,0.80
7270.00,0.80
7268.00,0.80
7266.00,0.80
7264.00,0.80
7262.00,0.81
7260.00,0.81
7258.00,0.81
7256.00,0.81
7254.00,0.81
7252.00,0.81
7250.00,0.80
7248.00,0.80
7246.00,0.80
7244.00,0.80
7242.00,0.80
7240.00,0.80
7238.00,0.80
7236.00,0.79
7234.00,0.79
7232.00,0.79
7230.00,0.79
7228.00,0.79
7226.00,0.79
7224.00,0.79
7222.00,0.79
7220.00,0.79
7218.00,0.79
7216.00,0.79
7214.00,0.79
7212.00,0.79
7210.00,0.79
7208.00,0.79
7206.00,0.79
7204.00,0.79
7202.00,0.79
7200.00,0.79
7198.00,0.79
7196.00,0.79
7194.00,0.79
7192.00,0.79
7190.00,0.79
7188.00,0.78
7186.00,0.78
7184.00,0.78
7182.00,0.78
7180.00,0.78
7178.00,0.78
7176.00,0.78
7174.00,0.78
7172.00,0.78
7170.00,0.78
7168.00,0.78
7166.00,0.78
7164.00,0.77
7162.00,0.77
7160.00,0.77
7158.00,0.77
7156.00,0.77
7154.00,0.77
7152.00,0.77
7150.00,0.77
7148.00,0.77
7146.00,0.77
7144.00,0.77
7142.00,0.77
7140.00,0.77
7138.00,0.77
7136.00,0.77
7134.00,0.77
7132.00,0.77
7130.00,0.77
7128.00,0.76
7126.00,0.76
7124.00,0.76
7122.00,0.76
7120.00,0.76
7118.00,0.76
7116.00,0.76
7114.00,0.76
7112.00,0.76
7110.00,0.75
7108.00,0.75
7106.00,0.75
7104.00,0.75
7102.00,0.75
7100.00,0.75
7098.00,0.75
7096.00,0.75
7094.00,0.75
7092.00,0.75
7090.00,0.75
7088.00,0.75
7086.00,0.75
7084.00,0.75
7082.00,0.75
7080.00,0.74
7078.00,0.74
7076.00,0.74
7074.00,0.74
7072.00,0.74
7070.00,0.74
7068.00,0.74
7066.00,0.74
7064.00,0.74
7062.00,0.74
7060.00,0.74
7058.00,0.74
7056.00,0.74
7054.00,0.74
7052.00,0.74
7050.00,0.74
7048.00,0.74
7046.00,0.74
7044.00,0.74
7042.00,0.74
7040.00,0.74
7038.00,0.74
7036.00,0.73
7034.00,0.73
7032.00,0.73
7030.00,0.73
7028.00,0.73
7026.00,0.73
7024.00,0.73
7022.00,0.73
7020.00,0.73
7018.00,0.73
7016.00,0.73
7014.00,0.73
7012.00,0.73
7010.00,0.73
7008.00,0.73
7006.00,0.73
7004.00,0.73
7002.00,0.73
7000.00,0.73
6998.00,0.73
6996.00,0.73
6994.00,0.73
6992.00,0.72
6990.00,0.72
6988.00,0.72
6986.00,0.72
6984.00,0.72
6982.00,0.72
6980.00,0.72
6978.00,0.72
6976.00,0.72
6974.00,0.72
6972.00,0.72
6970.00,0.72
6968.00,0.72
6966.00,0.72
6964.00,0.72
6962.00,0.72
6960.00,0.72
6958.00,0.73
6956.00,0.73
6954.00,0.73
6952.00,0.73
6950.00,0.72
6948.00,0.72
6946.00,0.72
6944.00,0.72
6942.00,0.72
6940.00,0.72
6938.00,0.72
6936.00,0.72
6934.00,0.72
6932.00,0.72
6930.00,0.72
6928.00,0.72
6926.00,0.72
6924.00,0.72
6922.00,0.72
6920.00,0.72
6918.00,0.72
6916.00,0.72
6914.00,0.72
6912.00,0.72
6910.00,0.72
6908.00,0.72
6906.00,0.72
6904.00,0.71
6902.00,0.71
6900.00,0.71
6898.00,0.71
6896.00,0.71
6894.00,0.71
6892.00,0.71
6890.00,0.71
6888.00,0.71
6886.00,0.71
6884.00,0.71
6882.00,0.71
6880.00,0.71
6878.00,0.71
6876.00,0.71
6874.00,0.71
6872.00,0.71
6870.00,0.71
6868.00,0.71
6866.00,0.71
6864.00,0.71
6862.00,0.72
6860.00,0.72
6858.00,0.72
6856.00,0.72
6854.00,0.72
6852.00,0.72
6850.00,0.72
6848.00,0.71
6846.00,0.71
6844.00,0.71
6842.00,0.71
6840.00,0.72
6838.00,0.72
6836.00,0.72
6834.00,0.72
6832.00,0.72
6830.00,0.72
6828.00,0.72
6826.00,0.72
6824.00,0.72
6822.00,0.72
6820.00,0.72
6818.00,0.72
6816.00,0.72
6814.00,0.72
6812.00,0.72
6810.00,0.72
6808.00,0.72
6806.00,0.72
6804.00,0.72
6802.00,0.72
6800.00,0.72
6798.00,0.72
6796.00,0.72
6794.00,0.72
6792.00,0.73
6790.00,0.73
6788.00,0.73
6786.00,0.73
6784.00,0.73
6782.00,0.73
6780.00,0.73
6778.00,0.73
6776.00,0.73
6774.00,0.73
6772.00,0.73
6770.00,0.73
6768.00,0.73
6766.00,0.73
6764.00,0.72
6762.00,0.72
6760.00,0.72
6758.00,0.72
6756.00,0.73
6754.00,0.73
6752.00,0.73
6750.00,0.73
6748.00,0.73
6746.00,0.73
6744.00,0.73
6742.00,0.73
6740.00,0.73
6738.00,0.73
6736.00,0.73
6734.00,0.73
6732.00,0.73
6730.00,0.73
6728.00,0.73
6726.00,0.73
6724.00,0.73
6722.00,0.73
6720.00,0.73
6718.00,0.73
6716.00,0.73
6714.00,0.73
6712.00,0.73
6710.00,0.73
6708.00,0.74
6706.00,0.74
6704.00,0.74
6702.00,0.74
6700.00,0.74
6698.00,0.74
6696.00,0.74
6694.00,0.74
6692.00,0.74
6690.00,0.74
6688.00,0.74
6686.00,0.74
6684.00,0.74
6682.00,0.74
6680.00,0.74
6678.00,0.74
6676.00,0.74
6674.00,0.74
6672.00,0.74
6670.00,0.74
6668.00,0.74
6666.00,0.74
6664.00,0.74
6662.00,0.74
6660.00,0.74
6658.00,0.74
6656.00,0.74
6654.00,0.74
6652.00,0.74
6650.00,0.74
6648.00,0.74
6646.00,0.75
6644.00,0.75
6642.00,0.75
6640.00,0.75
6638.00,0.75
6636.00,0.75
6634.00,0.75
6632.00,0.75
6630.00,0.75
6628.00,0.75
6626.00,0.75
6624.00,0.75
6622.00,0.75
6620.00,0.75
6618.00,0.75
6616.00,0.75
6614.00,0.75
6612.00,0.75
6610.00,0.75
6608.00,0.75
6606.00,0.75
6604.00,0.75
6602.00,0.75
6600.00,0.75
6598.00,0.75
6596.00,0.75
6594.00,0.75
6592.00,0.75
6590.00,0.75
6588.00,0.75
6586.00,0.75
6584.00,0.75
6582.00,0.75
6580.00,0.75
6578.00,0.75
6576.00,0.75
6574.00,0.75
6572.00,0.75
6570.00,0.75
6568.00,0.75
6566.00,0.76
6564.00,0.76
6562.00,0.76
6560.00,0.76
6558.00,0.76
6556.00,0.76
6554.00,0.76
6552.00,0.76
6550.00,0.76
6548.00,0.76
6546.00,0.76
6544.00,0.76
6542.00,0.76
6540.00,0.76
6538.00,0.76
6536.00,0.76
6534.00,0.76
6532.00,0.76
6530.00,0.76
6528.00,0.76
6526.00,0.76
6524.00,0.76
6522.00,0.76
6520.00,0.76
6518.00,0.76
6516.00,0.76
6514.00,0.76
6512.00,0.77
6510.00,0.77
6508.00,0.77
6506.00,0.77
6504.00,0.76
6502.00,0.76
6500.00,0.76
6498.00,0.76
6496.00,0.76
6494.00,0.76
6492.00,0.76
6490.00,0.77
6488.00,0.77
6486.00,0.77
6484.00,0.77
6482.00,0.77
6480.00,0.77
6478.00,0.77
6476.00,0.77
6474.00,0.77
6472.00,0.77
6470.00,0.77
6468.00,0.77
6466.00,0.77
6464.00,0.77
6462.00,0.77
6460.00,0.77
6458.00,0.77
6456.00,0.77
6454.00,0.77
6452.00,0.77
6450.00,0.77
6448.00,0.77
6446.00,0.77
6444.00,0.77
6442.00,0.77
6440.00,0.77
6438.00,0.77
6436.00,0.77
6434.00,0.77
6432.00,0.77
6430.00,0.77
6428.00,0.77
6426.00,0.77
6424.00,0.77
6422.00,0.77
6420.00,0.77
6418.00,0.77
6416.00,0.77
6414.00,0.77
6412.00,0.77
6410.00,0.77
6408.00,0.77
6406.00,0.77
6404.00,0.77
6402.00,0.77
6400.00,0.77
6398.00,0.77
6396.00,0.77
6394.00,0.77
6392.00,0.78
6390.00,0.78
6388.00,0.78
6386.00,0.78
6384.00,0.78
6382.00,0.78
6380.00,0.78
6378.00,0.78
6376.00,0.78
6374.00,0.78
6372.00,0.78
6370.00,0.78
6368.00,0.78
6366.00,0.78
6364.00,0.78
6362.00,0.78
6360.00,0.78
6358.00,0.78
6356.00,0.78
6354.00,0.78
6352.00,0.78
6350.00,0.78
6348.00,0.78
6346.00,0.78
6344.00,0.78
6342.00,0.78
6340.00,0.78
6338.00,0.78
6336.00,0.78
6334.00,0.78
6332.00,0.78
6330.00,0.78
6328.00,0.78
6326.00,0.78
6324.00,0.78
6322.00,0.78
6320.00,0.78
6318.00,0.78
6316.00,0.78
6314.00,0.78
6312.00,0.78
6310.00,0.78
6308.00,0.78
6306.00,0.78
6304.00,0.78
6302.00,0.78
6300.00,0.78
6298.00,0.78
6296.00,0.78
6294.00,0.78
6292.00,0.78
6290.00,0.78
6288.00,0.78
6286.00,0.78
6284.00,0.79
6282.00,0.79
6280.00,0.79
6278.00,0.79
6276.00,0.79
6274.00,0.79
6272.00,0.79
6270.00,0.79
6268.00,0.79
6266.00,0.79
6264.00,0.79
6262.00,0.79
6260.00,0.79
6258.00,0.79
6256.00,0.79
6254.00,0.79
6252.00,0.79
6250.00,0.79
6248.00,0.79
6246.00,0.79
6244.00,0.80
6242.00,0.80
6240.00,0.80
6238.00,0.80
6236.00,0.80
6234.00,0.80
6232.00,0.79
6230.00,0.79
6228.00,0.79
6226.00,0.79
6224.00,0.79
6222.00,0.79
6220.00,0.79
6218.00,0.79
6216.00,0.79
6214.00,0.80
6212.00,0.80
6210.00,0.80
6208.00,0.80
6206.00,0.80
6204.00,0.80
6202.00,0.80
6200.00,0.80
6198.00,0.80
6196.00,0.80
6194.00,0.80
6192.00,0.80
6190.00,0.80
6188.00,0.80
6186.00,0.80
6184.00,0.80
6182.00,0.81
6180.00,0.81
6178.00,0.81
6176.00,0.81
6174.00,0.81
6172.00,0.81
6170.00,0.81
6168.00,0.81
6166.00,0.81
6164.00,0.81
6162.00,0.81
6160.00,0.81
6158.00,0.81
6156.00,0.81
6154.00,0.81
6152.00,0.81
6150.00,0.81
6148.00,0.81
6146.00,0.81
6144.00,0.81
6142.00,0.81
6140.00,0.81
6138.00,0.81
6136.00,0.81
6134.00,0.81
6132.00,0.81
6130.00,0.81
6128.00,0.81
6126.00,0.81
6124.00,0.82
6122.00,0.82
6120.00,0.82
6118.00,0.82
6116.00,0.82
6114.00,0.82
6112.00,0.82
6110.00,0.82
6108.00,0.82
6106.00,0.82
6104.00,0.82
6102.00,0.82
6100.00,0.82
6098.00,0.82
6096.00,0.82
6094.00,0.82
6092.00,0.82
6090.00,0.82
6088.00,0.82
6086.00,0.82
6084.00,0.82
6082.00,0.82
6080.00,0.82
6078.00,0.82
6076.00,0.82
6074.00,0.82
6072.00,0.82
6070.00,0.82
6068.00,0.82
6066.00,0.82
6064.00,0.82
6062.00,0.82
6060.00,0.82
6058.00,0.82
6056.00,0.82
6054.00,0.82
6052.00,0.82
6050.00,0.82
6048.00,0.82
6046.00,0.82
6044.00,0.82
6042.00,0.82
6040.00,0.82
6038.00,0.82
6036.00,0.82
6034.00,0.82
6032.00,0.82
6030.00,0.82
6028.00,0.82
6026.00,0.82
6024.00,0.82
6022.00,0.82
6020.00,0.82
6018.00,0.82
6016.00,0.82
6014.00,0.82
6012.00,0.82
6010.00,0.83
6008.00,0.83
6006.00,0.83
6004.00,0.83
6002.00,0.83
6000.00,0.82
5998.00,0.82
5996.00,0.82
5994.00,0.82
5992.00,0.82
5990.00,0.82
5988.00,0.82
5986.00,0.82
5984.00,0.82
5982.00,0.82
5980.00,0.82
5978.00,0.82
5976.00,0.82
5974.00,0.82
5972.00,0.82
5970.00,0.82
5968.00,0.82
5966.00,0.82
5964.00,0.81
5962.00,0.81
5960.00,0.81
5958.00,0.81
5956.00,0.81
5954.00,0.81
5952.00,0.80
5950.00,0.80
5948.00,0.80
5946.00,0.80
5944.00,0.80
5942.00,0.80
5940.00,0.79
5938.00,0.79
5936.00,0.79
5934.00,0.79
5932.00,0.80
5930.00,0.80
5928.00,0.80
5926.00,0.80
5924.00,0.80
5922.00,0.80
5920.00,0.80
5918.00,0.80
5916.00,0.80
5914.00,0.80
5912.00,0.80
5910.00,0.80
5908.00,0.80
5906.00,0.80
5904.00,0.80
5902.00,0.79
5900.00,0.79
5898.00,0.79
5896.00,0.79
5894.00,0.79
5892.00,0.79
5890.00,0.79
5888.00,0.79
5886.00,0.80
5884.00,0.80
5882.00,0.80
5880.00,0.80
5878.00,0.80
5876.00,0.80
5874.00,0.80
5872.00,0.80
5870.00,0.80
5868.00,0.80
5866.00,0.80
5864.00,0.80
5862.00,0.80
5860.00,0.80
5858.00,0.80
5856.00,0.80
5854.00,0.80
5852.00,0.80
5850.00,0.80
5848.00,0.80
5846.00,0.80
5844.00,0.81
5842.00,0.81
5840.00,0.81
5838.00,0.81
5836.00,0.81
5834.00,0.81
5832.00,0.81
5830.00,0.81
5828.00,0.81
5826.00,0.81
5824.00,0.81
5822.00,0.81
5820.00,0.81
5818.00,0.81
5816.00,0.81
5814.00,0.81
5812.00,0.81
5810.00,0.81
5808.00,0.81
5806.00,0.81
5804.00,0.81
5802.00,0.81
5800.00,0.81
5798.00,0.81
5796.00,0.81
5794.00,0.80
5792.00,0.80
5790.00,0.80
5788.00,0.80
5786.00,0.80
5784.00,0.80
5782.00,0.80
5780.00,0.80
5778.00,0.80
5776.00,0.80
5774.00,0.80
5772.00,0.80
5770.00,0.80
5768.00,0.80
5766.00,0.80
5764.00,0.80
5762.00,0.80
5760.00,0.80
5758.00,0.80
5756.00,0.80
5754.00,0.81
5752.00,0.81
5750.00,0.81
5748.00,0.81
5746.00,0.81
5744.00,0.81
5742.00,0.81
5740.00,0.81
5738.00,0.81
5736.00,0.81
5734.00,0.81
5732.00,0.81
5730.00,0.82
5728.00,0.82
5726.00,0.82
5724.00,0.82
5722.00,0.82
5720.00,0.82
5718.00,0.82
5716.00,0.82
5714.00,0.82
5712.00,0.82
5710.00,0.82
5708.00,0.82
5706.00,0.82
5704.00,0.82
5702.00,0.82
5700.00,0.82
5698.00,0.82
5696.00,0.82
5694.00,0.82
5692.00,0.82
5690.00,0.82
5688.00,0.81
5686.00,0.81
5684.00,0.81
5682.00,0.81
5680.00,0.81
5678.00,0.81
5676.00,0.81
5674.00,0.81
5672.00,0.81
5670.00,0.81
5668.00,0.81
5666.00,0.81
5664.00,0.81
5662.00,0.81
5660.00,0.81
5658.00,0.81
5656.00,0.81
5654.00,0.81
5652.00,0.81
5650.00,0.81
5648.00,0.82
5646.00,0.82
5644.00,0.82
5642.00,0.82
5640.00,0.82
5638.00,0.82
5636.00,0.82
5634.00,0.82
5632.00,0.82
5630.00,0.82
5628.00,0.82
5626.00,0.82
5624.00,0.82
5622.00,0.82
5620.00,0.82
5618.00,0.82
5616.00,0.82
5614.00,0.82
5612.00,0.83
5610.00,0.83
5608.00,0.83
5606.00,0.83
5604.00,0.83
5602.00,0.83
5600.00,0.83
5598.00,0.83
5596.00,0.83
5594.00,0.83
5592.00,0.83
5590.00,0.83
5588.00,0.83
5586.00,0.83
5584.00,0.83
5582.00,0.83
5580.00,0.83
5578.00,0.83
5576.00,0.83
5574.00,0.83
5572.00,0.83
5570.00,0.83
5568.00,0.84
5566.00,0.84
5564.00,0.84
5562.00,0.84
5560.00,0.84
5558.00,0.84
5556.00,0.84
5554.00,0.84
5552.00,0.84
5550.00,0.84
5548.00,0.84
5546.00,0.84
5544.00,0.84
5542.00,0.84
5540.00,0.84
5538.00,0.84
5536.00,0.84
5534.00,0.84
5532.00,0.84
5530.00,0.84
5528.00,0.84
5526.00,0.84
5524.00,0.84
5522.00,0.84
5520.00,0.84
5518.00,0.84
5516.00,0.84
5514.00,0.84
5512.00,0.84
5510.00,0.84
5508.00,0.84
5506.00,0.84
5504.00,0.84
5502.00,0.84
5500.00,0.84
5498.00,0.84
5496.00,0.84
5494.00,0.84
5492.00,0.84
5490.00,0.84
5488.00,0.84
5486.00,0.84
5484.00,0.84
5482.00,0.84
5480.00,0.84
5478.00,0.84
5476.00,0.84
5474.00,0.84
5472.00,0.84
5470.00,0.84
5468.00,0.84
5466.00,0.84
5464.00,0.84
5462.00,0.84
5460.00,0.85
5458.00,0.85
5456.00,0.85
5454.00,0.85
5452.00,0.85
5450.00,0.85
5448.00,0.85
5446.00,0.85
5444.00,0.85
5442.00,0.85
5440.00,0.85
5438.00,0.85
5436.00,0.85
5434.00,0.85
5432.00,0.85
5430.00,0.85
5428.00,0.85
5426.00,0.85
5424.00,0.85
5422.00,0.85
5420.00,0.85
5418.00,0.85
5416.00,0.85
5414.00,0.85
5412.00,0.85
5410.00,0.85
5408.00,0.85
5406.00,0.85
5404.00,0.85
5402.00,0.85
5400.00,0.85
5398.00,0.85
5396.00,0.85
5394.00,0.85
5392.00,0.85
5390.00,0.85
5388.00,0.85
5386.00,0.85
5384.00,0.85
5382.00,0.85
5380.00,0.85
5378.00,0.85
5376.00,0.84
5374.00,0.84
5372.00,0.84
5370.00,0.84
5368.00,0.84
5366.00,0.84
5364.00,0.84
5362.00,0.84
5360.00,0.84
5358.00,0.84
5356.00,0.84
5354.00,0.84
5352.00,0.83
5350.00,0.83
5348.00,0.83
5346.00,0.83
5344.00,0.82
5342.00,0.82
5340.00,0.82
5338.00,0.81
5336.00,0.81
5334.00,0.81
5332.00,0.81
5330.00,0.80
5328.00,0.80
5326.00,0.80
5324.00,0.80
5322.00,0.79
5320.00,0.79
5318.00,0.78
5316.00,0.78
5314.00,0.78
5312.00,0.77
5310.00,0.77
5308.00,0.76
5306.00,0.76
5304.00,0.76
5302.00,0.75
5300.00,0.75
5298.00,0.74
5296.00,0.74
5294.00,0.73
5292.00,0.73
5290.00,0.73
5288.00,0.72
5286.00,0.72
5284.00,0.72
5282.00,0.71
5280.00,0.71
5278.00,0.71
5276.00,0.71
5274.00,0.70
5272.00,0.70
5270.00,0.70
5268.00,0.70
5266.00,0.69
5264.00,0.69
5262.00,0.69
5260.00,0.68
5258.00,0.68
5256.00,0.68
5254.00,0.68
5252.00,0.67
5250.00,0.67
5248.00,0.67
5246.00,0.67
5244.00,0.67
5242.00,0.67
5240.00,0.66
5238.00,0.66
5236.00,0.66
5234.00,0.66
5232.00,0.66
5230.00,0.65
5228.00,0.65
5226.00,0.65
5224.00,0.65
5222.00,0.65
5220.00,0.64
5218.00,0.64
5216.00,0.64
5214.00,0.64
5212.00,0.64
5210.00,0.64
5208.00,0.63
5206.00,0.63
5204.00,0.63
5202.00,0.63
5200.00,0.63
5198.00,0.63
5196.00,0.63
5194.00,0.63
5192.00,0.63
5190.00,0.63
5188.00,0.63
5186.00,0.63
5184.00,0.63
5182.00,0.63
5180.00,0.63
5178.00,0.62
5176.00,0.62
5174.00,0.62
5172.00,0.62
5170.00,0.62
5168.00,0.62
5166.00,0.62
5164.00,0.62
5162.00,0.63
5160.00,0.63
5158.00,0.63
5156.00,0.63
5154.00,0.63
5152.00,0.63
5150.00,0.63
5148.00,0.63
5146.00,0.63
5144.00,0.63
5142.00,0.63
5140.00,0.63
5138.00,0.63
5136.00,0.64
5134.00,0.64
5132.00,0.64
5130.00,0.64
5128.00,0.64
5126.00,0.64
5124.00,0.64
5122.00,0.65
5120.00,0.65
5118.00,0.65
5116.00,0.65
5114.00,0.65
5112.00,0.65
5110.00,0.65
5108.00,0.65
5106.00,0.65
5104.00,0.65
5102.00,0.66
5100.00,0.66
5098.00,0.66
5096.00,0.66
5094.00,0.66
5092.00,0.66
5090.00,0.66
5088.00,0.67
5086.00,0.67
5084.00,0.67
5082.00,0.67
5080.00,0.67
5078.00,0.67
5076.00,0.67
5074.00,0.68
5072.00,0.68
5070.00,0.68
5068.00,0.68
5066.00,0.68
5064.00,0.68
5062.00,0.69
5060.00,0.69
5058.00,0.69
5056.00,0.69
5054.00,0.69
5052.00,0.69
5050.00,0.70
5048.00,0.70
5046.00,0.70
5044.00,0.70
5042.00,0.70
5040.00,0.70
5038.00,0.70
5036.00,0.70
5034.00,0.70
5032.00,0.71
5030.00,0.71
5028.00,0.71
5026.00,0.71
5024.00,0.71
5022.00,0.71
5020.00,0.71
5018.00,0.72
5016.00,0.72
5014.00,0.72
5012.00,0.72
5010.00,0.72
5008.00,0.72
5006.00,0.73
5004.00,0.73
5002.00,0.73
5000.00,0.73
4998.00,0.73
4996.00,0.73
4994.00,0.73
4992.00,0.73
4990.00,0.73
4988.00,0.74
4986.00,0.74
4984.00,0.74
4982.00,0.74
4980.00,0.74
4978.00,0.74
4976.00,0.74
4974.00,0.74
4972.00,0.74
4970.00,0.74
4968.00,0.74
4966.00,0.75
4964.00,0.75
4962.00,0.75
4960.00,0.75
4958.00,0.75
4956.00,0.75
4954.00,0.75
4952.00,0.75
4950.00,0.75
4948.00,0.75
4946.00,0.75
4944.00,0.75
4942.00,0.75
4940.00,0.76
4938.00,0.76
4936.00,0.76
4934.00,0.76
4932.00,0.76
4930.00,0.76
4928.00,0.76
4926.00,0.76
4924.00,0.76
4922.00,0.76
4920.00,0.76
4918.00,0.76
4916.00,0.76
4914.00,0.76
4912.00,0.77
4910.00,0.77
4908.00,0.77
4906.00,0.77
4904.00,0.77
4902.00,0.77
4900.00,0.77
4898.00,0.77
4896.00,0.77
4894.00,0.77
4892.00,0.77
4890.00,0.77
4888.00,0.77
4886.00,0.77
4884.00,0.77
4882.00,0.77
4880.00,0.77
4878.00,0.77
4876.00,0.77
4874.00,0.77
4872.00,0.77
4870.00,0.77
4868.00,0.77
4866.00,0.77
4864.00,0.77
4862.00,0.77
4860.00,0.77
4858.00,0.77
4856.00,0.78
4854.00,0.78
4852.00,0.78
4850.00,0.78
4848.00,0.78
4846.00,0.78
4844.00,0.78
4842.00,0.78
4840.00,0.78
4838.00,0.78
4836.00,0.78
4834.00,0.78
4832.00,0.78
4830.00,0.78
4828.00,0.78
4826.00,0.78
4824.00,0.78
4822.00,0.78
4820.00,0.78
4818.00,0.79
4816.00,0.79
4814.00,0.79
4812.00,0.79
4810.00,0.79
4808.00,0.79
4806.00,0.79
4804.00,0.79
4802.00,0.79
4800.00,0.79
4798.00,0.79
4796.00,0.79
4794.00,0.79
4792.00,0.79
4790.00,0.79
4788.00,0.79
4786.00,0.79
4784.00,0.80
4782.00,0.80
4780.00,0.80
4778.00,0.80
4776.00,0.80
4774.00,0.80
4772.00,0.80
4770.00,0.80
4768.00,0.80
4766.00,0.80
4764.00,0.80
4762.00,0.80
4760.00,0.80
4758.00,0.80
4756.00,0.80
4754.00,0.80
4752.00,0.80
4750.00,0.81
4748.00,0.81
4746.00,0.81
4744.00,0.81
4742.00,0.81
4740.00,0.81
4738.00,0.81
4736.00,0.81
4734.00,0.81
4732.00,0.81
4730.00,0.81
4728.00,0.82
4726.00,0.82
4724.00,0.82
4722.00,0.82
4720.00,0.82
4718.00,0.82
4716.00,0.82
4714.00,0.82
4712.00,0.82
4710.00,0.82
4708.00,0.82
4706.00,0.82
4704.00,0.82
4702.00,0.82
4700.00,0.82
4698.00,0.83
4696.00,0.83
4694.00,0.83
4692.00,0.83
4690.00,0.83
4688.00,0.83
4686.00,0.83
4684.00,0.83
4682.00,0.83
4680.00,0.83
4678.00,0.83
4676.00,0.83
4674.00,0.83
4672.00,0.83
4670.00,0.83
4668.00,0.83
4666.00,0.83
4664.00,0.83
4662.00,0.83
4660.00,0.83
4658.00,0.83
4656.00,0.83
4654.00,0.83
4652.00,0.83
4650.00,0.83
4648.00,0.83
4646.00,0.83
4644.00,0.83
4642.00,0.84
4640.00,0.84
4638.00,0.84
4636.00,0.84
4634.00,0.84
4632.00,0.84
4630.00,0.84
4628.00,0.84
4626.00,0.84
4624.00,0.84
4622.00,0.84
4620.00,0.84
4618.00,0.84
4616.00,0.84
4614.00,0.84
4612.00,0.84
4610.00,0.84
4608.00,0.84
4606.00,0.84
4604.00,0.84
4602.00,0.84
4600.00,0.84
4598.00,0.84
4596.00,0.84
4594.00,0.84
4592.00,0.84
4590.00,0.84
4588.00,0.84
4586.00,0.84
4584.00,0.84
4582.00,0.84
4580.00,0.84
4578.00,0.84
4576.00,0.84
4574.00,0.84
4572.00,0.84
4570.00,0.84
4568.00,0.84
4566.00,0.84
4564.00,0.84
4562.00,0.84
4560.00,0.84
4558.00,0.84
4556.00,0.84
4554.00,0.84
4552.00,0.84
4550.00,0.84
4548.00,0.84
4546.00,0.85
4544.00,0.85
4542.00,0.85
4540.00,0.85
4538.00,0.85
4536.00,0.85
4534.00,0.85
4532.00,0.85
4530.00,0.85
4528.00,0.85
4526.00,0.85
4524.00,0.85
4522.00,0.85
4520.00,0.85
4518.00,0.84
4516.00,0.84
4514.00,0.85
4512.00,0.85
4510.00,0.85
4508.00,0.85
4506.00,0.85
4504.00,0.85
4502.00,0.85
4500.00,0.85
4498.00,0.85
4496.00,0.85
4494.00,0.85
4492.00,0.85
4490.00,0.85
4488.00,0.85
4486.00,0.85
4484.00,0.85
4482.00,0.85
4480.00,0.85
4478.00,0.85
4476.00,0.85
4474.00,0.85
4472.00,0.85
4470.00,0.85
4468.00,0.84
4466.00,0.84
4464.00,0.84
4462.00,0.84
4460.00,0.84
4458.00,0.84
4456.00,0.84
4454.00,0.84
4452.00,0.83
4450.00,0.83
4448.00,0.83
4446.00,0.83
4444.00,0.82
4442.00,0.82
4440.00,0.82
4438.00,0.81
4436.00,0.81
4434.00,0.80
4432.00,0.80
4430.00,0.80
4428.00,0.79
4426.00,0.79
4424.00,0.78
4422.00,0.78
4420.00,0.77
4418.00,0.77
4416.00,0.77
4414.00,0.77
4412.00,0.76
4410.00,0.76
4408.00,0.76
4406.00,0.76
4404.00,0.77
4402.00,0.77
4400.00,0.77
4398.00,0.77
4396.00,0.78
4394.00,0.78
4392.00,0.78
4390.00,0.78
4388.00,0.78
4386.00,0.79
4384.00,0.79
4382.00,0.79
4380.00,0.79
4378.00,0.79
4376.00,0.80
4374.00,0.80
4372.00,0.80
4370.00,0.80
4368.00,0.80
4366.00,0.80
4364.00,0.80
4362.00,0.79
4360.00,0.79
4358.00,0.79
4356.00,0.79
4354.00,0.78
4352.00,0.78
4350.00,0.78
4348.00,0.78
4346.00,0.78
4344.00,0.77
4342.00,0.77
4340.00,0.77
4338.00,0.77
4336.00,0.77
4334.00,0.77
4332.00,0.78
4330.00,0.78
4328.00,0.78
4326.00,0.78
4324.00,0.79
4322.00,0.79
4320.00,0.80
4318.00,0.80
4316.00,0.81
4314.00,0.81
4312.00,0.81
4310.00,0.82
4308.00,0.82
4306.00,0.82
4304.00,0.83
4302.00,0.83
4300.00,0.83
4298.00,0.84
4296.00,0.84
4294.00,0.84
4292.00,0.84
4290.00,0.84
4288.00,0.84
4286.00,0.84
4284.00,0.84
4282.00,0.84
4280.00,0.84
4278.00,0.84
4276.00,0.84
4274.00,0.84
4272.00,0.84
4270.00,0.84
4268.00,0.83
4266.00,0.83
4264.00,0.83
4262.00,0.83
4260.00,0.82
4258.00,0.82
4256.00,0.82
4254.00,0.82
4252.00,0.82
4250.00,0.82
4248.00,0.82
4246.00,0.83
4244.00,0.83
4242.00,0.83
4240.00,0.83
4238.00,0.83
4236.00,0.83
4234.00,0.83
4232.00,0.84
4230.00,0.84
4228.00,0.84
4226.00,0.84
4224.00,0.84
4222.00,0.84
4220.00,0.84
4218.00,0.85
4216.00,0.85
4214.00,0.85
4212.00,0.85
4210.00,0.85
4208.00,0.85
4206.00,0.85
4204.00,0.85
4202.00,0.85
4200.00,0.85
4198.00,0.85
4196.00,0.85
4194.00,0.85
4192.00,0.85
4190.00,0.85
4188.00,0.84
4186.00,0.84
4184.00,0.84
4182.00,0.84
4180.00,0.84
4178.00,0.84
4176.00,0.84
4174.00,0.84
4172.00,0.84
4170.00,0.84
4168.00,0.84
4166.00,0.84
4164.00,0.84
4162.00,0.84
4160.00,0.84
4158.00,0.84
4156.00,0.84
4154.00,0.84
4152.00,0.84
4150.00,0.84
4148.00,0.84
4146.00,0.84
4144.00,0.84
4142.00,0.84
4140.00,0.84
4138.00,0.85
4136.00,0.85
4134.00,0.85
4132.00,0.85
4130.00,0.85
4128.00,0.85
4126.00,0.85
4124.00,0.85
4122.00,0.85
4120.00,0.85
4118.00,0.85
4116.00,0.85
4114.00,0.85
4112.00,0.85
4110.00,0.84
4108.00,0.84
4106.00,0.84
4104.00,0.84
4102.00,0.84
4100.00,0.84
4098.00,0.84
4096.00,0.84
4094.00,0.84
4092.00,0.83
4090.00,0.83
4088.00,0.83
4086.00,0.83
4084.00,0.83
4082.00,0.82
4080.00,0.82
4078.00,0.82
4076.00,0.82
4074.00,0.82
4072.00,0.81
4070.00,0.81
4068.00,0.81
4066.00,0.81
4064.00,0.82
4062.00,0.82
4060.00,0.82
4058.00,0.82
4056.00,0.82
4054.00,0.82
4052.00,0.82
4050.00,0.82
4048.00,0.82
4046.00,0.82
4044.00,0.82
4042.00,0.82
4040.00,0.82
4038.00,0.82
4036.00,0.82
4034.00,0.82
4032.00,0.83
4030.00,0.83
4028.00,0.83
4026.00,0.83
4024.00,0.83
4022.00,0.83
4020.00,0.83
4018.00,0.83
4016.00,0.83
4014.00,0.83
4012.00,0.83
4010.00,0.84
4008.00,0.84
4006.00,0.84
4004.00,0.84
4002.00,0.85
4000.00,0.85
