创建为新数据集,样品 1714 用户 Administrator 日期 星期三, 三月 15 2017
cm-1,%T
10000.00,0.91
9998.00,0.92
9996.00,0.92
9994.00,0.93
9992.00,0.93
9990.00,0.93
9988.00,0.93
9986.00,0.93
9984.00,0.93
9982.00,0.93
9980.00,0.92
9978.00,0.92
9976.00,0.92
9974.00,0.92
9972.00,0.91
9970.00,0.91
9968.00,0.90
9966.00,0.89
9964.00,0.89
9962.00,0.88
9960.00,0.87
9958.00,0.86
9956.00,0.86
9954.00,0.85
9952.00,0.85
9950.00,0.85
9948.00,0.85
9946.00,0.86
9944.00,0.86
9942.00,0.86
9940.00,0.87
9938.00,0.87
9936.00,0.88
9934.00,0.88
9932.00,0.88
9930.00,0.88
9928.00,0.88
9926.00,0.88
9924.00,0.88
9922.00,0.87
9920.00,0.86
9918.00,0.85
9916.00,0.84
9914.00,0.83
9912.00,0.83
9910.00,0.82
9908.00,0.82
9906.00,0.82
9904.00,0.83
9902.00,0.83
9900.00,0.83
9898.00,0.83
9896.00,0.83
9894.00,0.83
9892.00,0.83
9890.00,0.82
9888.00,0.82
9886.00,0.82
9884.00,0.83
9882.00,0.83
9880.00,0.83
9878.00,0.83
9876.00,0.83
9874.00,0.83
9872.00,0.83
9870.00,0.83
9868.00,0.83
9866.00,0.83
9864.00,0.83
9862.00,0.83
9860.00,0.83
9858.00,0.83
9856.00,0.83
9854.00,0.83
9852.00,0.83
9850.00,0.82
9848.00,0.82
9846.00,0.82
9844.00,0.81
9842.00,0.81
9840.00,0.81
9838.00,0.81
9836.00,0.81
9834.00,0.82
9832.00,0.82
9830.00,0.82
9828.00,0.82
9826.00,0.82
9824.00,0.82
9822.00,0.82
9820.00,0.82
9818.00,0.82
9816.00,0.82
9814.00,0.82
9812.00,0.83
9810.00,0.83
9808.00,0.83
9806.00,0.83
9804.00,0.83
9802.00,0.83
9800.00,0.83
9798.00,0.83
9796.00,0.83
9794.00,0.83
9792.00,0.83
9790.00,0.82
9788.00,0.82
9786.00,0.82
9784.00,0.82
9782.00,0.82
9780.00,0.81
9778.00,0.81
9776.00,0.81
9774.00,0.81
9772.00,0.81
9770.00,0.81
9768.00,0.81
9766.00,0.81
9764.00,0.82
9762.00,0.82
9760.00,0.82
9758.00,0.82
9756.00,0.82
9754.00,0.82
9752.00,0.82
9750.00,0.82
9748.00,0.82
9746.00,0.82
9744.00,0.83
9742.00,0.83
9740.00,0.83
9738.00,0.83
9736.00,0.83
9734.00,0.83
9732.00,0.83
9730.00,0.82
9728.00,0.82
9726.00,0.81
9724.00,0.81
9722.00,0.81
9720.00,0.81
9718.00,0.81
9716.00,0.81
9714.00,0.81
9712.00,0.82
9710.00,0.82
9708.00,0.82
9706.00,0.82
9704.00,0.83
9702.00,0.83
9700.00,0.83
9698.00,0.83
9696.00,0.82
9694.00,0.82
9692.00,0.82
9690.00,0.81
9688.00,0.81
9686.00,0.80
9684.00,0.80
9682.00,0.80
9680.00,0.79
9678.00,0.79
9676.00,0.79
9674.00,0.79
9672.00,0.79
9670.00,0.80
9668.00,0.80
9666.00,0.80
9664.00,0.80
9662.00,0.79
9660.00,0.79
9658.00,0.79
9656.00,0.79
9654.00,0.80
9652.00,0.80
9650.00,0.81
9648.00,0.81
9646.00,0.81
9644.00,0.82
9642.00,0.82
9640.00,0.82
9638.00,0.81
9636.00,0.81
9634.00,0.81
9632.00,0.81
9630.00,0.81
9628.00,0.81
9626.00,0.81
9624.00,0.81
9622.00,0.81
9620.00,0.81
9618.00,0.81
9616.00,0.81
9614.00,0.81
9612.00,0.81
9610.00,0.81
9608.00,0.81
9606.00,0.81
9604.00,0.81
9602.00,0.82
9600.00,0.82
9598.00,0.82
9596.00,0.81
9594.00,0.81
9592.00,0.81
9590.00,0.81
9588.00,0.81
9586.00,0.81
9584.00,0.80
9582.00,0.80
9580.00,0.80
9578.00,0.80
9576.00,0.81
9574.00,0.81
9572.00,0.81
9570.00,0.82
9568.00,0.82
9566.00,0.82
9564.00,0.82
9562.00,0.82
9560.00,0.82
9558.00,0.82
9556.00,0.81
9554.00,0.81
9552.00,0.81
9550.00,0.81
9548.00,0.81
9546.00,0.81
9544.00,0.82
9542.00,0.82
9540.00,0.82
9538.00,0.83
9536.00,0.83
9534.00,0.83
9532.00,0.83
9530.00,0.83
9528.00,0.83
9526.00,0.83
9524.00,0.83
9522.00,0.82
9520.00,0.82
9518.00,0.81
9516.00,0.81
9514.00,0.80
9512.00,0.80
9510.00,0.80
9508.00,0.80
9506.00,0.80
9504.00,0.80
9502.00,0.80
9500.00,0.80
9498.00,0.80
9496.00,0.81
9494.00,0.81
9492.00,0.81
9490.00,0.81
9488.00,0.81
9486.00,0.81
9484.00,0.81
9482.00,0.81
9480.00,0.81
9478.00,0.81
9476.00,0.80
9474.00,0.80
9472.00,0.80
9470.00,0.80
9468.00,0.79
9466.00,0.79
9464.00,0.80
9462.00,0.80
9460.00,0.80
9458.00,0.81
9456.00,0.81
9454.00,0.81
9452.00,0.82
9450.00,0.82
9448.00,0.82
9446.00,0.82
9444.00,0.82
9442.00,0.82
9440.00,0.82
9438.00,0.82
9436.00,0.82
9434.00,0.82
9432.00,0.82
9430.00,0.82
9428.00,0.83
9426.00,0.83
9424.00,0.83
9422.00,0.83
9420.00,0.83
9418.00,0.83
9416.00,0.83
9414.00,0.82
9412.00,0.82
9410.00,0.82
9408.00,0.81
9406.00,0.81
9404.00,0.81
9402.00,0.81
9400.00,0.81
9398.00,0.81
9396.00,0.81
9394.00,0.81
9392.00,0.81
9390.00,0.81
9388.00,0.81
9386.00,0.81
9384.00,0.81
9382.00,0.81
9380.00,0.81
9378.00,0.81
9376.00,0.81
9374.00,0.81
9372.00,0.81
9370.00,0.81
9368.00,0.81
9366.00,0.81
9364.00,0.81
9362.00,0.80
9360.00,0.80
9358.00,0.79
9356.00,0.79
9354.00,0.79
9352.00,0.79
9350.00,0.78
9348.00,0.79
9346.00,0.79
9344.00,0.79
9342.00,0.79
9340.00,0.80
9338.00,0.80
9336.00,0.80
9334.00,0.81
9332.00,0.81
9330.00,0.81
9328.00,0.81
9326.00,0.81
9324.00,0.81
9322.00,0.81
9320.00,0.81
9318.00,0.81
9316.00,0.81
9314.00,0.81
9312.00,0.81
9310.00,0.81
9308.00,0.81
9306.00,0.81
9304.00,0.81
9302.00,0.81
9300.00,0.81
9298.00,0.80
9296.00,0.80
9294.00,0.80
9292.00,0.80
9290.00,0.80
9288.00,0.80
9286.00,0.81
9284.00,0.81
9282.00,0.81
9280.00,0.81
9278.00,0.81
9276.00,0.81
9274.00,0.81
9272.00,0.80
9270.00,0.80
9268.00,0.81
9266.00,0.81
9264.00,0.81
9262.00,0.81
9260.00,0.82
9258.00,0.82
9256.00,0.82
9254.00,0.82
9252.00,0.82
9250.00,0.82
9248.00,0.82
9246.00,0.82
9244.00,0.82
9242.00,0.81
9240.00,0.81
9238.00,0.81
9236.00,0.81
9234.00,0.81
9232.00,0.81
9230.00,0.81
9228.00,0.81
9226.00,0.81
9224.00,0.81
9222.00,0.81
9220.00,0.81
9218.00,0.81
9216.00,0.82
9214.00,0.81
9212.00,0.81
9210.00,0.81
9208.00,0.81
9206.00,0.81
9204.00,0.81
9202.00,0.80
9200.00,0.80
9198.00,0.81
9196.00,0.81
9194.00,0.81
9192.00,0.81
9190.00,0.81
9188.00,0.81
9186.00,0.81
9184.00,0.81
9182.00,0.81
9180.00,0.81
9178.00,0.81
9176.00,0.81
9174.00,0.82
9172.00,0.82
9170.00,0.82
9168.00,0.81
9166.00,0.81
9164.00,0.81
9162.00,0.81
9160.00,0.81
9158.00,0.82
9156.00,0.82
9154.00,0.82
9152.00,0.83
9150.00,0.83
9148.00,0.83
9146.00,0.83
9144.00,0.83
9142.00,0.82
9140.00,0.82
9138.00,0.81
9136.00,0.80
9134.00,0.80
9132.00,0.79
9130.00,0.79
9128.00,0.79
9126.00,0.79
9124.00,0.80
9122.00,0.80
9120.00,0.81
9118.00,0.81
9116.00,0.81
9114.00,0.82
9112.00,0.82
9110.00,0.82
9108.00,0.82
9106.00,0.82
9104.00,0.82
9102.00,0.82
9100.00,0.82
9098.00,0.82
9096.00,0.82
9094.00,0.82
9092.00,0.82
9090.00,0.82
9088.00,0.82
9086.00,0.82
9084.00,0.82
9082.00,0.82
9080.00,0.82
9078.00,0.81
9076.00,0.81
9074.00,0.81
9072.00,0.81
9070.00,0.81
9068.00,0.81
9066.00,0.81
9064.00,0.82
9062.00,0.82
9060.00,0.81
9058.00,0.81
9056.00,0.81
9054.00,0.81
9052.00,0.81
9050.00,0.80
9048.00,0.80
9046.00,0.80
9044.00,0.80
9042.00,0.80
9040.00,0.80
9038.00,0.80
9036.00,0.81
9034.00,0.81
9032.00,0.81
9030.00,0.81
9028.00,0.81
9026.00,0.81
9024.00,0.81
9022.00,0.82
9020.00,0.82
9018.00,0.82
9016.00,0.82
9014.00,0.82
9012.00,0.82
9010.00,0.82
9008.00,0.82
9006.00,0.83
9004.00,0.83
9002.00,0.83
9000.00,0.83
8998.00,0.83
8996.00,0.83
8994.00,0.83
8992.00,0.82
8990.00,0.82
8988.00,0.82
8986.00,0.82
8984.00,0.81
8982.00,0.81
8980.00,0.81
8978.00,0.80
8976.00,0.80
8974.00,0.80
8972.00,0.80
8970.00,0.80
8968.00,0.80
8966.00,0.81
8964.00,0.81
8962.00,0.81
8960.00,0.81
8958.00,0.81
8956.00,0.81
8954.00,0.82
8952.00,0.82
8950.00,0.82
8948.00,0.82
8946.00,0.82
8944.00,0.82
8942.00,0.82
8940.00,0.82
8938.00,0.81
8936.00,0.81
8934.00,0.81
8932.00,0.81
8930.00,0.81
8928.00,0.82
8926.00,0.82
8924.00,0.82
8922.00,0.82
8920.00,0.82
8918.00,0.82
8916.00,0.82
8914.00,0.82
8912.00,0.82
8910.00,0.82
8908.00,0.82
8906.00,0.82
8904.00,0.82
8902.00,0.82
8900.00,0.82
8898.00,0.82
8896.00,0.82
8894.00,0.82
8892.00,0.82
8890.00,0.82
8888.00,0.82
8886.00,0.82
8884.00,0.81
8882.00,0.81
8880.00,0.81
8878.00,0.81
8876.00,0.81
8874.00,0.81
8872.00,0.81
8870.00,0.81
8868.00,0.81
8866.00,0.81
8864.00,0.82
8862.00,0.82
8860.00,0.82
8858.00,0.82
8856.00,0.82
8854.00,0.82
8852.00,0.82
8850.00,0.82
8848.00,0.82
8846.00,0.82
8844.00,0.82
8842.00,0.82
8840.00,0.82
8838.00,0.82
8836.00,0.82
8834.00,0.82
8832.00,0.83
8830.00,0.83
8828.00,0.83
8826.00,0.83
8824.00,0.83
8822.00,0.83
8820.00,0.83
8818.00,0.83
8816.00,0.82
8814.00,0.82
8812.00,0.82
8810.00,0.82
8808.00,0.82
8806.00,0.82
8804.00,0.82
8802.00,0.82
8800.00,0.82
8798.00,0.82
8796.00,0.83
8794.00,0.83
8792.00,0.83
8790.00,0.83
8788.00,0.83
8786.00,0.82
8784.00,0.82
8782.00,0.81
8780.00,0.81
8778.00,0.81
8776.00,0.80
8774.00,0.80
8772.00,0.80
8770.00,0.80
8768.00,0.81
8766.00,0.81
8764.00,0.81
8762.00,0.81
8760.00,0.81
8758.00,0.81
8756.00,0.81
8754.00,0.81
8752.00,0.81
8750.00,0.81
8748.00,0.81
8746.00,0.81
8744.00,0.81
8742.00,0.81
8740.00,0.80
8738.00,0.80
8736.00,0.80
8734.00,0.80
8732.00,0.80
8730.00,0.80
8728.00,0.80
8726.00,0.79
8724.00,0.79
8722.00,0.79
8720.00,0.79
8718.00,0.79
8716.00,0.79
8714.00,0.80
8712.00,0.80
8710.00,0.80
8708.00,0.80
8706.00,0.80
8704.00,0.81
8702.00,0.81
8700.00,0.82
8698.00,0.82
8696.00,0.82
8694.00,0.82
8692.00,0.82
8690.00,0.82
8688.00,0.82
8686.00,0.82
8684.00,0.81
8682.00,0.81
8680.00,0.81
8678.00,0.81
8676.00,0.80
8674.00,0.80
8672.00,0.80
8670.00,0.80
8668.00,0.80
8666.00,0.80
8664.00,0.81
8662.00,0.81
8660.00,0.81
8658.00,0.81
8656.00,0.81
8654.00,0.81
8652.00,0.81
8650.00,0.81
8648.00,0.81
8646.00,0.81
8644.00,0.81
8642.00,0.81
8640.00,0.81
8638.00,0.80
8636.00,0.80
8634.00,0.80
8632.00,0.81
8630.00,0.81
8628.00,0.81
8626.00,0.81
8624.00,0.81
8622.00,0.82
8620.00,0.82
8618.00,0.82
8616.00,0.81
8614.00,0.81
8612.00,0.81
8610.00,0.81
8608.00,0.81
8606.00,0.81
8604.00,0.81
8602.00,0.81
8600.00,0.81
8598.00,0.81
8596.00,0.82
8594.00,0.82
8592.00,0.82
8590.00,0.82
8588.00,0.82
8586.00,0.82
8584.00,0.82
8582.00,0.82
8580.00,0.82
8578.00,0.82
8576.00,0.82
8574.00,0.82
8572.00,0.82
8570.00,0.81
8568.00,0.81
8566.00,0.81
8564.00,0.81
8562.00,0.81
8560.00,0.81
8558.00,0.81
8556.00,0.81
8554.00,0.81
8552.00,0.81
8550.00,0.81
8548.00,0.81
8546.00,0.81
8544.00,0.81
8542.00,0.81
8540.00,0.80
8538.00,0.80
8536.00,0.80
8534.00,0.80
8532.00,0.79
8530.00,0.79
8528.00,0.79
8526.00,0.79
8524.00,0.79
8522.00,0.79
8520.00,0.79
8518.00,0.79
8516.00,0.80
8514.00,0.80
8512.00,0.80
8510.00,0.80
8508.00,0.80
8506.00,0.80
8504.00,0.81
8502.00,0.81
8500.00,0.81
8498.00,0.81
8496.00,0.81
8494.00,0.80
8492.00,0.80
8490.00,0.80
8488.00,0.80
8486.00,0.80
8484.00,0.80
8482.00,0.79
8480.00,0.79
8478.00,0.79
8476.00,0.79
8474.00,0.79
8472.00,0.80
8470.00,0.80
8468.00,0.80
8466.00,0.80
8464.00,0.81
8462.00,0.81
8460.00,0.81
8458.00,0.81
8456.00,0.82
8454.00,0.82
8452.00,0.81
8450.00,0.81
8448.00,0.81
8446.00,0.81
8444.00,0.81
8442.00,0.81
8440.00,0.81
8438.00,0.81
8436.00,0.81
8434.00,0.81
8432.00,0.81
8430.00,0.81
8428.00,0.80
8426.00,0.80
8424.00,0.80
8422.00,0.80
8420.00,0.80
8418.00,0.81
8416.00,0.81
8414.00,0.81
8412.00,0.81
8410.00,0.81
8408.00,0.81
8406.00,0.81
8404.00,0.81
8402.00,0.81
8400.00,0.80
8398.00,0.80
8396.00,0.80
8394.00,0.81
8392.00,0.81
8390.00,0.81
8388.00,0.81
8386.00,0.81
8384.00,0.81
8382.00,0.81
8380.00,0.81
8378.00,0.80
8376.00,0.80
8374.00,0.80
8372.00,0.80
8370.00,0.81
8368.00,0.81
8366.00,0.81
8364.00,0.81
8362.00,0.81
8360.00,0.81
8358.00,0.81
8356.00,0.81
8354.00,0.81
8352.00,0.80
8350.00,0.80
8348.00,0.80
8346.00,0.81
8344.00,0.81
8342.00,0.81
8340.00,0.81
8338.00,0.81
8336.00,0.81
8334.00,0.81
8332.00,0.81
8330.00,0.81
8328.00,0.81
8326.00,0.81
8324.00,0.81
8322.00,0.81
8320.00,0.81
8318.00,0.81
8316.00,0.81
8314.00,0.81
8312.00,0.81
8310.00,0.81
8308.00,0.81
8306.00,0.81
8304.00,0.81
8302.00,0.81
8300.00,0.81
8298.00,0.81
8296.00,0.81
8294.00,0.81
8292.00,0.81
8290.00,0.81
8288.00,0.81
8286.00,0.81
8284.00,0.81
8282.00,0.81
8280.00,0.81
8278.00,0.81
8276.00,0.81
8274.00,0.81
8272.00,0.81
8270.00,0.81
8268.00,0.81
8266.00,0.80
8264.00,0.80
8262.00,0.80
8260.00,0.80
8258.00,0.80
8256.00,0.80
8254.00,0.80
8252.00,0.80
8250.00,0.80
8248.00,0.80
8246.00,0.81
8244.00,0.81
8242.00,0.81
8240.00,0.81
8238.00,0.81
8236.00,0.81
8234.00,0.81
8232.00,0.81
8230.00,0.81
8228.00,0.81
8226.00,0.81
8224.00,0.81
8222.00,0.81
8220.00,0.81
8218.00,0.81
8216.00,0.81
8214.00,0.81
8212.00,0.81
8210.00,0.81
8208.00,0.81
8206.00,0.81
8204.00,0.81
8202.00,0.81
8200.00,0.81
8198.00,0.81
8196.00,0.81
8194.00,0.81
8192.00,0.81
8190.00,0.81
8188.00,0.81
8186.00,0.81
8184.00,0.81
8182.00,0.81
8180.00,0.81
8178.00,0.81
8176.00,0.81
8174.00,0.81
8172.00,0.81
8170.00,0.81
8168.00,0.81
8166.00,0.81
8164.00,0.81
8162.00,0.81
8160.00,0.81
8158.00,0.81
8156.00,0.81
8154.00,0.81
8152.00,0.81
8150.00,0.81
8148.00,0.81
8146.00,0.81
8144.00,0.82
8142.00,0.82
8140.00,0.82
8138.00,0.82
8136.00,0.82
8134.00,0.82
8132.00,0.82
8130.00,0.82
8128.00,0.82
8126.00,0.82
8124.00,0.82
8122.00,0.81
8120.00,0.81
8118.00,0.81
8116.00,0.81
8114.00,0.81
8112.00,0.81
8110.00,0.81
8108.00,0.81
8106.00,0.81
8104.00,0.81
8102.00,0.81
8100.00,0.81
8098.00,0.81
8096.00,0.80
8094.00,0.80
8092.00,0.80
8090.00,0.80
8088.00,0.80
8086.00,0.80
8084.00,0.80
8082.00,0.81
8080.00,0.81
8078.00,0.81
8076.00,0.81
8074.00,0.81
8072.00,0.81
8070.00,0.81
8068.00,0.81
8066.00,0.81
8064.00,0.81
8062.00,0.81
8060.00,0.81
8058.00,0.81
8056.00,0.81
8054.00,0.82
8052.00,0.82
8050.00,0.82
8048.00,0.82
8046.00,0.82
8044.00,0.82
8042.00,0.82
8040.00,0.82
8038.00,0.82
8036.00,0.82
8034.00,0.83
8032.00,0.83
8030.00,0.83
8028.00,0.83
8026.00,0.82
8024.00,0.82
8022.00,0.82
8020.00,0.82
8018.00,0.82
8016.00,0.81
8014.00,0.81
8012.00,0.81
8010.00,0.81
8008.00,0.81
8006.00,0.81
8004.00,0.81
8002.00,0.81
8000.00,0.81
7998.00,0.81
7996.00,0.81
7994.00,0.81
7992.00,0.81
7990.00,0.81
7988.00,0.81
7986.00,0.81
7984.00,0.82
7982.00,0.82
7980.00,0.82
7978.00,0.82
7976.00,0.82
7974.00,0.82
7972.00,0.82
7970.00,0.82
7968.00,0.82
7966.00,0.82
7964.00,0.82
7962.00,0.82
7960.00,0.82
7958.00,0.81
7956.00,0.81
7954.00,0.81
7952.00,0.81
7950.00,0.81
7948.00,0.81
7946.00,0.81
7944.00,0.81
7942.00,0.81
7940.00,0.81
7938.00,0.82
7936.00,0.82
7934.00,0.82
7932.00,0.82
7930.00,0.82
7928.00,0.82
7926.00,0.82
7924.00,0.82
7922.00,0.82
7920.00,0.82
7918.00,0.82
7916.00,0.82
7914.00,0.82
7912.00,0.82
7910.00,0.82
7908.00,0.82
7906.00,0.82
7904.00,0.82
7902.00,0.82
7900.00,0.82
7898.00,0.82
7896.00,0.82
7894.00,0.82
7892.00,0.82
7890.00,0.82
7888.00,0.82
7886.00,0.81
7884.00,0.81
7882.00,0.81
7880.00,0.81
7878.00,0.81
7876.00,0.81
7874.00,0.81
7872.00,0.81
7870.00,0.81
7868.00,0.81
7866.00,0.81
7864.00,0.81
7862.00,0.81
7860.00,0.81
7858.00,0.81
7856.00,0.81
7854.00,0.81
7852.00,0.81
7850.00,0.81
7848.00,0.81
7846.00,0.81
7844.00,0.81
7842.00,0.81
7840.00,0.81
7838.00,0.81
7836.00,0.82
7834.00,0.82
7832.00,0.82
7830.00,0.82
7828.00,0.82
7826.00,0.82
7824.00,0.82
7822.00,0.82
7820.00,0.82
7818.00,0.82
7816.00,0.82
7814.00,0.82
7812.00,0.82
7810.00,0.82
7808.00,0.82
7806.00,0.82
7804.00,0.82
7802.00,0.82
7800.00,0.82
7798.00,0.82
7796.00,0.82
7794.00,0.82
7792.00,0.82
7790.00,0.82
7788.00,0.82
7786.00,0.82
7784.00,0.82
7782.00,0.82
7780.00,0.82
7778.00,0.82
7776.00,0.82
7774.00,0.82
7772.00,0.82
7770.00,0.82
7768.00,0.82
7766.00,0.82
7764.00,0.82
7762.00,0.82
7760.00,0.82
7758.00,0.82
7756.00,0.82
7754.00,0.82
7752.00,0.82
7750.00,0.81
7748.00,0.81
7746.00,0.81
7744.00,0.81
7742.00,0.81
7740.00,0.81
7738.00,0.81
7736.00,0.81
7734.00,0.82
7732.00,0.82
7730.00,0.82
7728.00,0.82
7726.00,0.82
7724.00,0.82
7722.00,0.82
7720.00,0.82
7718.00,0.82
7716.00,0.82
7714.00,0.82
7712.00,0.82
7710.00,0.82
7708.00,0.82
7706.00,0.82
7704.00,0.82
7702.00,0.81
7700.00,0.81
7698.00,0.81
7696.00,0.81
7694.00,0.81
7692.00,0.81
7690.00,0.81
7688.00,0.81
7686.00,0.81
7684.00,0.81
7682.00,0.81
7680.00,0.81
7678.00,0.81
7676.00,0.81
7674.00,0.81
7672.00,0.81
7670.00,0.81
7668.00,0.81
7666.00,0.81
7664.00,0.81
7662.00,0.81
7660.00,0.81
7658.00,0.81
7656.00,0.81
7654.00,0.82
7652.00,0.82
7650.00,0.82
7648.00,0.82
7646.00,0.82
7644.00,0.82
7642.00,0.82
7640.00,0.82
7638.00,0.82
7636.00,0.82
7634.00,0.82
7632.00,0.82
7630.00,0.82
7628.00,0.82
7626.00,0.82
7624.00,0.82
7622.00,0.82
7620.00,0.83
7618.00,0.83
7616.00,0.83
7614.00,0.83
7612.00,0.83
7610.00,0.82
7608.00,0.82
7606.00,0.82
7604.00,0.82
7602.00,0.81
7600.00,0.81
7598.00,0.81
7596.00,0.81
7594.00,0.82
7592.00,0.82
7590.00,0.82
7588.00,0.82
7586.00,0.82
7584.00,0.82
7582.00,0.82
7580.00,0.82
7578.00,0.82
7576.00,0.81
7574.00,0.81
7572.00,0.81
7570.00,0.81
7568.00,0.81
7566.00,0.81
7564.00,0.81
7562.00,0.82
7560.00,0.82
7558.00,0.82
7556.00,0.82
7554.00,0.82
7552.00,0.82
7550.00,0.81
7548.00,0.81
7546.00,0.81
7544.00,0.81
7542.00,0.82
7540.00,0.82
7538.00,0.82
7536.00,0.82
7534.00,0.82
7532.00,0.82
7530.00,0.83
7528.00,0.83
7526.00,0.82
7524.00,0.82
7522.00,0.82
7520.00,0.82
7518.00,0.82
7516.00,0.82
7514.00,0.82
7512.00,0.82
7510.00,0.81
7508.00,0.81
7506.00,0.81
7504.00,0.81
7502.00,0.81
7500.00,0.81
7498.00,0.81
7496.00,0.81
7494.00,0.81
7492.00,0.81
7490.00,0.81
7488.00,0.81
7486.00,0.81
7484.00,0.81
7482.00,0.81
7480.00,0.81
7478.00,0.81
7476.00,0.81
7474.00,0.81
7472.00,0.81
7470.00,0.81
7468.00,0.81
7466.00,0.81
7464.00,0.81
7462.00,0.82
7460.00,0.82
7458.00,0.82
7456.00,0.82
7454.00,0.81
7452.00,0.81
7450.00,0.81
7448.00,0.81
7446.00,0.81
7444.00,0.81
7442.00,0.80
7440.00,0.80
7438.00,0.80
7436.00,0.80
7434.00,0.80
7432.00,0.80
7430.00,0.80
7428.00,0.81
7426.00,0.81
7424.00,0.81
7422.00,0.81
7420.00,0.81
7418.00,0.81
7416.00,0.81
7414.00,0.81
7412.00,0.81
7410.00,0.81
7408.00,0.81
7406.00,0.81
7404.00,0.81
7402.00,0.81
7400.00,0.81
7398.00,0.81
7396.00,0.81
7394.00,0.81
7392.00,0.81
7390.00,0.81
7388.00,0.81
7386.00,0.81
7384.00,0.81
7382.00,0.81
7380.00,0.81
7378.00,0.81
7376.00,0.81
7374.00,0.81
7372.00,0.81
7370.00,0.81
7368.00,0.81
7366.00,0.81
7364.00,0.81
7362.00,0.80
7360.00,0.80
7358.00,0.80
7356.00,0.80
7354.00,0.80
7352.00,0.80
7350.00,0.80
7348.00,0.80
7346.00,0.80
7344.00,0.80
7342.00,0.80
7340.00,0.80
7338.00,0.80
7336.00,0.80
7334.00,0.80
7332.00,0.80
7330.00,0.80
7328.00,0.80
7326.00,0.80
7324.00,0.80
7322.00,0.80
7320.00,0.80
7318.00,0.80
7316.00,0.80
7314.00,0.80
7312.00,0.80
7310.00,0.80
7308.00,0.80
7306.00,0.80
7304.00,0.80
7302.00,0.80
7300.00,0.81
7298.00,0.81
7296.00,0.81
7294.00,0.81
7292.00,0.81
7290.00,0.81
7288.00,0.81
7286.00,0.81
7284.00,0.80
7282.00,0.80
7280.00,0.80
7278.00,0.80
7276.00,0.80
7274.00,0.80
7272.00,0.80
7270.00,0.80
7268.00,0.80
7266.00,0.79
7264.00,0.79
7262.00,0.79
7260.00,0.79
7258.00,0.79
7256.00,0.79
7254.00,0.79
7252.00,0.79
7250.00,0.79
7248.00,0.79
7246.00,0.79
7244.00,0.79
7242.00,0.79
7240.00,0.79
7238.00,0.79
7236.00,0.79
7234.00,0.79
7232.00,0.79
7230.00,0.79
7228.00,0.79
7226.00,0.79
7224.00,0.79
7222.00,0.80
7220.00,0.80
7218.00,0.80
7216.00,0.80
7214.00,0.80
7212.00,0.80
7210.00,0.80
7208.00,0.80
7206.00,0.80
7204.00,0.80
7202.00,0.79
7200.00,0.79
7198.00,0.79
7196.00,0.79
7194.00,0.79
7192.00,0.79
7190.00,0.78
7188.00,0.78
7186.00,0.78
7184.00,0.78
7182.00,0.78
7180.00,0.78
7178.00,0.78
7176.00,0.78
7174.00,0.78
7172.00,0.78
7170.00,0.78
7168.00,0.78
7166.00,0.78
7164.00,0.78
7162.00,0.77
7160.00,0.77
7158.00,0.77
7156.00,0.77
7154.00,0.77
7152.00,0.77
7150.00,0.77
7148.00,0.77
7146.00,0.77
7144.00,0.77
7142.00,0.77
7140.00,0.77
7138.00,0.77
7136.00,0.78
7134.00,0.78
7132.00,0.78
7130.00,0.78
7128.00,0.78
7126.00,0.78
7124.00,0.77
7122.00,0.77
7120.00,0.77
7118.00,0.77
7116.00,0.76
7114.00,0.76
7112.00,0.76
7110.00,0.76
7108.00,0.76
7106.00,0.76
7104.00,0.76
7102.00,0.76
7100.00,0.76
7098.00,0.76
7096.00,0.76
7094.00,0.76
7092.00,0.76
7090.00,0.76
7088.00,0.76
7086.00,0.76
7084.00,0.76
7082.00,0.76
7080.00,0.76
7078.00,0.76
7076.00,0.76
7074.00,0.76
7072.00,0.76
7070.00,0.76
7068.00,0.76
7066.00,0.76
7064.00,0.76
7062.00,0.76
7060.00,0.76
7058.00,0.76
7056.00,0.76
7054.00,0.76
7052.00,0.75
7050.00,0.75
7048.00,0.75
7046.00,0.75
7044.00,0.75
7042.00,0.75
7040.00,0.75
7038.00,0.75
7036.00,0.75
7034.00,0.75
7032.00,0.75
7030.00,0.75
7028.00,0.75
7026.00,0.75
7024.00,0.75
7022.00,0.75
7020.00,0.75
7018.00,0.75
7016.00,0.75
7014.00,0.75
7012.00,0.75
7010.00,0.74
7008.00,0.74
7006.00,0.74
7004.00,0.74
7002.00,0.74
7000.00,0.74
6998.00,0.74
6996.00,0.74
6994.00,0.74
6992.00,0.74
6990.00,0.74
6988.00,0.74
6986.00,0.74
6984.00,0.74
6982.00,0.74
6980.00,0.74
6978.00,0.74
6976.00,0.74
6974.00,0.74
6972.00,0.74
6970.00,0.74
6968.00,0.74
6966.00,0.74
6964.00,0.74
6962.00,0.74
6960.00,0.74
6958.00,0.74
6956.00,0.74
6954.00,0.74
6952.00,0.74
6950.00,0.74
6948.00,0.74
6946.00,0.74
6944.00,0.74
6942.00,0.74
6940.00,0.74
6938.00,0.74
6936.00,0.74
6934.00,0.73
6932.00,0.73
6930.00,0.73
6928.00,0.73
6926.00,0.73
6924.00,0.74
6922.00,0.74
6920.00,0.74
6918.00,0.74
6916.00,0.74
6914.00,0.74
6912.00,0.74
6910.00,0.74
6908.00,0.74
6906.00,0.74
6904.00,0.73
6902.00,0.73
6900.00,0.73
6898.00,0.73
6896.00,0.73
6894.00,0.73
6892.00,0.73
6890.00,0.73
6888.00,0.73
6886.00,0.73
6884.00,0.73
6882.00,0.73
6880.00,0.73
6878.00,0.73
6876.00,0.73
6874.00,0.73
6872.00,0.73
6870.00,0.73
6868.00,0.73
6866.00,0.73
6864.00,0.73
6862.00,0.73
6860.00,0.73
6858.00,0.73
6856.00,0.73
6854.00,0.73
6852.00,0.73
6850.00,0.73
6848.00,0.73
6846.00,0.73
6844.00,0.73
6842.00,0.73
6840.00,0.73
6838.00,0.73
6836.00,0.74
6834.00,0.74
6832.00,0.74
6830.00,0.74
6828.00,0.74
6826.00,0.74
6824.00,0.74
6822.00,0.74
6820.00,0.74
6818.00,0.73
6816.00,0.73
6814.00,0.73
6812.00,0.73
6810.00,0.73
6808.00,0.73
6806.00,0.74
6804.00,0.74
6802.00,0.74
6800.00,0.74
6798.00,0.74
6796.00,0.74
6794.00,0.74
6792.00,0.74
6790.00,0.74
6788.00,0.74
6786.00,0.74
6784.00,0.74
6782.00,0.74
6780.00,0.74
6778.00,0.74
6776.00,0.74
6774.00,0.74
6772.00,0.74
6770.00,0.74
6768.00,0.74
6766.00,0.74
6764.00,0.74
6762.00,0.74
6760.00,0.74
6758.00,0.74
6756.00,0.74
6754.00,0.74
6752.00,0.74
6750.00,0.74
6748.00,0.74
6746.00,0.74
6744.00,0.74
6742.00,0.74
6740.00,0.74
6738.00,0.74
6736.00,0.74
6734.00,0.74
6732.00,0.74
6730.00,0.74
6728.00,0.74
6726.00,0.74
6724.00,0.74
6722.00,0.74
6720.00,0.74
6718.00,0.74
6716.00,0.74
6714.00,0.74
6712.00,0.74
6710.00,0.74
6708.00,0.74
6706.00,0.74
6704.00,0.74
6702.00,0.74
6700.00,0.74
6698.00,0.74
6696.00,0.74
6694.00,0.74
6692.00,0.74
6690.00,0.75
6688.00,0.75
6686.00,0.75
6684.00,0.75
6682.00,0.75
6680.00,0.75
6678.00,0.75
6676.00,0.75
6674.00,0.75
6672.00,0.75
6670.00,0.75
6668.00,0.75
6666.00,0.75
6664.00,0.75
6662.00,0.75
6660.00,0.75
6658.00,0.75
6656.00,0.75
6654.00,0.75
6652.00,0.75
6650.00,0.75
6648.00,0.75
6646.00,0.75
6644.00,0.75
6642.00,0.75
6640.00,0.75
6638.00,0.75
6636.00,0.75
6634.00,0.75
6632.00,0.75
6630.00,0.75
6628.00,0.75
6626.00,0.75
6624.00,0.75
6622.00,0.76
6620.00,0.76
6618.00,0.76
6616.00,0.76
6614.00,0.76
6612.00,0.76
6610.00,0.76
6608.00,0.76
6606.00,0.76
6604.00,0.76
6602.00,0.76
6600.00,0.76
6598.00,0.76
6596.00,0.76
6594.00,0.76
6592.00,0.76
6590.00,0.76
6588.00,0.76
6586.00,0.76
6584.00,0.76
6582.00,0.76
6580.00,0.76
6578.00,0.76
6576.00,0.76
6574.00,0.76
6572.00,0.76
6570.00,0.76
6568.00,0.76
6566.00,0.76
6564.00,0.76
6562.00,0.76
6560.00,0.76
6558.00,0.76
6556.00,0.76
6554.00,0.76
6552.00,0.76
6550.00,0.76
6548.00,0.76
6546.00,0.76
6544.00,0.76
6542.00,0.76
6540.00,0.76
6538.00,0.76
6536.00,0.76
6534.00,0.76
6532.00,0.76
6530.00,0.76
6528.00,0.76
6526.00,0.76
6524.00,0.77
6522.00,0.77
6520.00,0.77
6518.00,0.77
6516.00,0.77
6514.00,0.77
6512.00,0.77
6510.00,0.76
6508.00,0.76
6506.00,0.76
6504.00,0.76
6502.00,0.76
6500.00,0.76
6498.00,0.76
6496.00,0.76
6494.00,0.76
6492.00,0.76
6490.00,0.77
6488.00,0.77
6486.00,0.77
6484.00,0.77
6482.00,0.77
6480.00,0.77
6478.00,0.77
6476.00,0.77
6474.00,0.77
6472.00,0.77
6470.00,0.77
6468.00,0.77
6466.00,0.77
6464.00,0.77
6462.00,0.77
6460.00,0.77
6458.00,0.77
6456.00,0.77
6454.00,0.77
6452.00,0.77
6450.00,0.77
6448.00,0.77
6446.00,0.77
6444.00,0.77
6442.00,0.77
6440.00,0.77
6438.00,0.77
6436.00,0.77
6434.00,0.77
6432.00,0.77
6430.00,0.77
6428.00,0.77
6426.00,0.77
6424.00,0.77
6422.00,0.77
6420.00,0.77
6418.00,0.77
6416.00,0.77
6414.00,0.77
6412.00,0.77
6410.00,0.77
6408.00,0.77
6406.00,0.77
6404.00,0.77
6402.00,0.77
6400.00,0.77
6398.00,0.78
6396.00,0.78
6394.00,0.78
6392.00,0.78
6390.00,0.78
6388.00,0.78
6386.00,0.78
6384.00,0.77
6382.00,0.77
6380.00,0.77
6378.00,0.77
6376.00,0.77
6374.00,0.77
6372.00,0.77
6370.00,0.77
6368.00,0.77
6366.00,0.77
6364.00,0.77
6362.00,0.77
6360.00,0.78
6358.00,0.78
6356.00,0.78
6354.00,0.78
6352.00,0.78
6350.00,0.78
6348.00,0.78
6346.00,0.78
6344.00,0.78
6342.00,0.78
6340.00,0.78
6338.00,0.78
6336.00,0.78
6334.00,0.78
6332.00,0.78
6330.00,0.78
6328.00,0.78
6326.00,0.78
6324.00,0.78
6322.00,0.78
6320.00,0.78
6318.00,0.78
6316.00,0.78
6314.00,0.78
6312.00,0.78
6310.00,0.78
6308.00,0.78
6306.00,0.78
6304.00,0.78
6302.00,0.78
6300.00,0.78
6298.00,0.78
6296.00,0.78
6294.00,0.78
6292.00,0.78
6290.00,0.78
6288.00,0.78
6286.00,0.78
6284.00,0.78
6282.00,0.78
6280.00,0.78
6278.00,0.79
6276.00,0.79
6274.00,0.79
6272.00,0.79
6270.00,0.78
6268.00,0.78
6266.00,0.78
6264.00,0.78
6262.00,0.78
6260.00,0.78
6258.00,0.78
6256.00,0.78
6254.00,0.78
6252.00,0.78
6250.00,0.78
6248.00,0.78
6246.00,0.78
6244.00,0.79
6242.00,0.79
6240.00,0.79
6238.00,0.79
6236.00,0.79
6234.00,0.79
6232.00,0.79
6230.00,0.79
6228.00,0.79
6226.00,0.79
6224.00,0.79
6222.00,0.79
6220.00,0.79
6218.00,0.79
6216.00,0.79
6214.00,0.79
6212.00,0.79
6210.00,0.79
6208.00,0.79
6206.00,0.79
6204.00,0.79
6202.00,0.79
6200.00,0.79
6198.00,0.79
6196.00,0.79
6194.00,0.79
6192.00,0.79
6190.00,0.79
6188.00,0.79
6186.00,0.80
6184.00,0.80
6182.00,0.80
6180.00,0.80
6178.00,0.80
6176.00,0.80
6174.00,0.80
6172.00,0.80
6170.00,0.80
6168.00,0.80
6166.00,0.80
6164.00,0.79
6162.00,0.79
6160.00,0.79
6158.00,0.79
6156.00,0.79
6154.00,0.79
6152.00,0.79
6150.00,0.80
6148.00,0.80
6146.00,0.80
6144.00,0.80
6142.00,0.80
6140.00,0.80
6138.00,0.80
6136.00,0.80
6134.00,0.80
6132.00,0.80
6130.00,0.80
6128.00,0.80
6126.00,0.80
6124.00,0.80
6122.00,0.80
6120.00,0.80
6118.00,0.80
6116.00,0.80
6114.00,0.80
6112.00,0.80
6110.00,0.80
6108.00,0.80
6106.00,0.80
6104.00,0.80
6102.00,0.80
6100.00,0.80
6098.00,0.80
6096.00,0.80
6094.00,0.80
6092.00,0.80
6090.00,0.80
6088.00,0.80
6086.00,0.80
6084.00,0.80
6082.00,0.80
6080.00,0.80
6078.00,0.80
6076.00,0.80
6074.00,0.80
6072.00,0.80
6070.00,0.80
6068.00,0.80
6066.00,0.81
6064.00,0.81
6062.00,0.81
6060.00,0.81
6058.00,0.81
6056.00,0.81
6054.00,0.81
6052.00,0.81
6050.00,0.81
6048.00,0.81
6046.00,0.81
6044.00,0.81
6042.00,0.81
6040.00,0.81
6038.00,0.81
6036.00,0.81
6034.00,0.81
6032.00,0.81
6030.00,0.81
6028.00,0.81
6026.00,0.81
6024.00,0.81
6022.00,0.81
6020.00,0.81
6018.00,0.81
6016.00,0.81
6014.00,0.81
6012.00,0.81
6010.00,0.81
6008.00,0.81
6006.00,0.81
6004.00,0.81
6002.00,0.81
6000.00,0.81
5998.00,0.81
5996.00,0.81
5994.00,0.81
5992.00,0.81
5990.00,0.81
5988.00,0.81
5986.00,0.81
5984.00,0.81
5982.00,0.81
5980.00,0.81
5978.00,0.81
5976.00,0.81
5974.00,0.81
5972.00,0.81
5970.00,0.81
5968.00,0.81
5966.00,0.80
5964.00,0.80
5962.00,0.80
5960.00,0.80
5958.00,0.79
5956.00,0.79
5954.00,0.79
5952.00,0.79
5950.00,0.79
5948.00,0.79
5946.00,0.78
5944.00,0.78
5942.00,0.79
5940.00,0.79
5938.00,0.79
5936.00,0.79
5934.00,0.79
5932.00,0.79
5930.00,0.79
5928.00,0.79
5926.00,0.79
5924.00,0.79
5922.00,0.79
5920.00,0.79
5918.00,0.79
5916.00,0.79
5914.00,0.79
5912.00,0.79
5910.00,0.79
5908.00,0.79
5906.00,0.78
5904.00,0.78
5902.00,0.78
5900.00,0.78
5898.00,0.78
5896.00,0.78
5894.00,0.78
5892.00,0.78
5890.00,0.78
5888.00,0.78
5886.00,0.78
5884.00,0.79
5882.00,0.79
5880.00,0.79
5878.00,0.79
5876.00,0.79
5874.00,0.79
5872.00,0.79
5870.00,0.79
5868.00,0.79
5866.00,0.79
5864.00,0.79
5862.00,0.79
5860.00,0.79
5858.00,0.79
5856.00,0.79
5854.00,0.79
5852.00,0.79
5850.00,0.79
5848.00,0.79
5846.00,0.79
5844.00,0.79
5842.00,0.79
5840.00,0.79
5838.00,0.79
5836.00,0.79
5834.00,0.79
5832.00,0.79
5830.00,0.79
5828.00,0.79
5826.00,0.79
5824.00,0.79
5822.00,0.79
5820.00,0.79
5818.00,0.79
5816.00,0.79
5814.00,0.79
5812.00,0.79
5810.00,0.79
5808.00,0.79
5806.00,0.79
5804.00,0.79
5802.00,0.79
5800.00,0.79
5798.00,0.79
5796.00,0.79
5794.00,0.79
5792.00,0.79
5790.00,0.79
5788.00,0.79
5786.00,0.79
5784.00,0.79
5782.00,0.79
5780.00,0.79
5778.00,0.79
5776.00,0.79
5774.00,0.79
5772.00,0.79
5770.00,0.79
5768.00,0.79
5766.00,0.79
5764.00,0.79
5762.00,0.79
5760.00,0.79
5758.00,0.79
5756.00,0.79
5754.00,0.79
5752.00,0.79
5750.00,0.79
5748.00,0.80
5746.00,0.80
5744.00,0.80
5742.00,0.80
5740.00,0.80
5738.00,0.80
5736.00,0.80
5734.00,0.80
5732.00,0.80
5730.00,0.80
5728.00,0.80
5726.00,0.80
5724.00,0.80
5722.00,0.80
5720.00,0.80
5718.00,0.80
5716.00,0.80
5714.00,0.80
5712.00,0.80
5710.00,0.80
5708.00,0.80
5706.00,0.80
5704.00,0.80
5702.00,0.80
5700.00,0.80
5698.00,0.80
5696.00,0.80
5694.00,0.80
5692.00,0.80
5690.00,0.80
5688.00,0.80
5686.00,0.80
5684.00,0.80
5682.00,0.80
5680.00,0.80
5678.00,0.80
5676.00,0.80
5674.00,0.80
5672.00,0.80
5670.00,0.80
5668.00,0.80
5666.00,0.80
5664.00,0.80
5662.00,0.80
5660.00,0.80
5658.00,0.80
5656.00,0.80
5654.00,0.80
5652.00,0.80
5650.00,0.80
5648.00,0.80
5646.00,0.81
5644.00,0.81
5642.00,0.81
5640.00,0.81
5638.00,0.81
5636.00,0.81
5634.00,0.81
5632.00,0.81
5630.00,0.81
5628.00,0.81
5626.00,0.81
5624.00,0.81
5622.00,0.81
5620.00,0.81
5618.00,0.81
5616.00,0.81
5614.00,0.81
5612.00,0.81
5610.00,0.81
5608.00,0.81
5606.00,0.81
5604.00,0.81
5602.00,0.81
5600.00,0.81
5598.00,0.81
5596.00,0.81
5594.00,0.81
5592.00,0.81
5590.00,0.81
5588.00,0.81
5586.00,0.81
5584.00,0.81
5582.00,0.81
5580.00,0.82
5578.00,0.82
5576.00,0.82
5574.00,0.82
5572.00,0.82
5570.00,0.82
5568.00,0.82
5566.00,0.82
5564.00,0.82
5562.00,0.82
5560.00,0.82
5558.00,0.82
5556.00,0.82
5554.00,0.82
5552.00,0.82
5550.00,0.82
5548.00,0.82
5546.00,0.82
5544.00,0.82
5542.00,0.82
5540.00,0.82
5538.00,0.82
5536.00,0.82
5534.00,0.82
5532.00,0.82
5530.00,0.82
5528.00,0.82
5526.00,0.82
5524.00,0.82
5522.00,0.82
5520.00,0.82
5518.00,0.82
5516.00,0.82
5514.00,0.82
5512.00,0.82
5510.00,0.82
5508.00,0.82
5506.00,0.82
5504.00,0.82
5502.00,0.82
5500.00,0.82
5498.00,0.82
5496.00,0.82
5494.00,0.82
5492.00,0.82
5490.00,0.82
5488.00,0.82
5486.00,0.82
5484.00,0.82
5482.00,0.82
5480.00,0.82
5478.00,0.82
5476.00,0.82
5474.00,0.82
5472.00,0.82
5470.00,0.82
5468.00,0.82
5466.00,0.82
5464.00,0.82
5462.00,0.82
5460.00,0.82
5458.00,0.82
5456.00,0.83
5454.00,0.83
5452.00,0.83
5450.00,0.83
5448.00,0.83
5446.00,0.83
5444.00,0.82
5442.00,0.82
5440.00,0.82
5438.00,0.82
5436.00,0.82
5434.00,0.82
5432.00,0.82
5430.00,0.83
5428.00,0.83
5426.00,0.83
5424.00,0.83
5422.00,0.83
5420.00,0.83
5418.00,0.83
5416.00,0.83
5414.00,0.83
5412.00,0.83
5410.00,0.83
5408.00,0.82
5406.00,0.82
5404.00,0.83
5402.00,0.83
5400.00,0.83
5398.00,0.83
5396.00,0.83
5394.00,0.83
5392.00,0.83
5390.00,0.83
5388.00,0.83
5386.00,0.83
5384.00,0.83
5382.00,0.83
5380.00,0.83
5378.00,0.83
5376.00,0.83
5374.00,0.82
5372.00,0.82
5370.00,0.82
5368.00,0.82
5366.00,0.83
5364.00,0.83
5362.00,0.83
5360.00,0.82
5358.00,0.82
5356.00,0.82
5354.00,0.82
5352.00,0.82
5350.00,0.82
5348.00,0.82
5346.00,0.82
5344.00,0.81
5342.00,0.81
5340.00,0.81
5338.00,0.81
5336.00,0.81
5334.00,0.81
5332.00,0.80
5330.00,0.80
5328.00,0.80
5326.00,0.80
5324.00,0.80
5322.00,0.79
5320.00,0.79
5318.00,0.79
5316.00,0.79
5314.00,0.78
5312.00,0.78
5310.00,0.78
5308.00,0.77
5306.00,0.77
5304.00,0.77
5302.00,0.76
5300.00,0.76
5298.00,0.76
5296.00,0.75
5294.00,0.75
5292.00,0.75
5290.00,0.74
5288.00,0.74
5286.00,0.74
5284.00,0.73
5282.00,0.73
5280.00,0.73
5278.00,0.73
5276.00,0.72
5274.00,0.72
5272.00,0.72
5270.00,0.72
5268.00,0.71
5266.00,0.71
5264.00,0.71
5262.00,0.71
5260.00,0.70
5258.00,0.70
5256.00,0.70
5254.00,0.70
5252.00,0.70
5250.00,0.70
5248.00,0.69
5246.00,0.69
5244.00,0.69
5242.00,0.69
5240.00,0.69
5238.00,0.69
5236.00,0.68
5234.00,0.68
5232.00,0.68
5230.00,0.68
5228.00,0.68
5226.00,0.68
5224.00,0.67
5222.00,0.67
5220.00,0.67
5218.00,0.67
5216.00,0.67
5214.00,0.66
5212.00,0.66
5210.00,0.66
5208.00,0.66
5206.00,0.66
5204.00,0.66
5202.00,0.65
5200.00,0.65
5198.00,0.65
5196.00,0.65
5194.00,0.65
5192.00,0.65
5190.00,0.65
5188.00,0.65
5186.00,0.65
5184.00,0.65
5182.00,0.65
5180.00,0.65
5178.00,0.65
5176.00,0.65
5174.00,0.65
5172.00,0.65
5170.00,0.65
5168.00,0.65
5166.00,0.65
5164.00,0.65
5162.00,0.65
5160.00,0.65
5158.00,0.65
5156.00,0.65
5154.00,0.65
5152.00,0.65
5150.00,0.65
5148.00,0.65
5146.00,0.65
5144.00,0.65
5142.00,0.66
5140.00,0.66
5138.00,0.66
5136.00,0.66
5134.00,0.66
5132.00,0.66
5130.00,0.66
5128.00,0.66
5126.00,0.66
5124.00,0.66
5122.00,0.66
5120.00,0.66
5118.00,0.67
5116.00,0.67
5114.00,0.67
5112.00,0.67
5110.00,0.67
5108.00,0.67
5106.00,0.67
5104.00,0.67
5102.00,0.68
5100.00,0.68
5098.00,0.68
5096.00,0.68
5094.00,0.68
5092.00,0.68
5090.00,0.68
5088.00,0.68
5086.00,0.69
5084.00,0.69
5082.00,0.69
5080.00,0.69
5078.00,0.69
5076.00,0.69
5074.00,0.69
5072.00,0.69
5070.00,0.70
5068.00,0.70
5066.00,0.70
5064.00,0.70
5062.00,0.70
5060.00,0.70
5058.00,0.70
5056.00,0.71
5054.00,0.71
5052.00,0.71
5050.00,0.71
5048.00,0.71
5046.00,0.71
5044.00,0.71
5042.00,0.71
5040.00,0.71
5038.00,0.72
5036.00,0.72
5034.00,0.72
5032.00,0.72
5030.00,0.72
5028.00,0.72
5026.00,0.72
5024.00,0.72
5022.00,0.72
5020.00,0.72
5018.00,0.73
5016.00,0.73
5014.00,0.73
5012.00,0.73
5010.00,0.73
5008.00,0.73
5006.00,0.73
5004.00,0.74
5002.00,0.74
5000.00,0.74
4998.00,0.74
4996.00,0.74
4994.00,0.74
4992.00,0.74
4990.00,0.74
4988.00,0.74
4986.00,0.74
4984.00,0.74
4982.00,0.75
4980.00,0.75
4978.00,0.75
4976.00,0.75
4974.00,0.75
4972.00,0.75
4970.00,0.75
4968.00,0.75
4966.00,0.75
4964.00,0.75
4962.00,0.75
4960.00,0.75
4958.00,0.75
4956.00,0.75
4954.00,0.75
4952.00,0.75
4950.00,0.76
4948.00,0.76
4946.00,0.76
4944.00,0.76
4942.00,0.76
4940.00,0.76
4938.00,0.76
4936.00,0.76
4934.00,0.76
4932.00,0.76
4930.00,0.76
4928.00,0.76
4926.00,0.76
4924.00,0.76
4922.00,0.76
4920.00,0.76
4918.00,0.76
4916.00,0.76
4914.00,0.76
4912.00,0.76
4910.00,0.76
4908.00,0.76
4906.00,0.76
4904.00,0.76
4902.00,0.76
4900.00,0.76
4898.00,0.76
4896.00,0.76
4894.00,0.76
4892.00,0.76
4890.00,0.76
4888.00,0.76
4886.00,0.76
4884.00,0.76
4882.00,0.76
4880.00,0.76
4878.00,0.76
4876.00,0.76
4874.00,0.76
4872.00,0.76
4870.00,0.76
4868.00,0.76
4866.00,0.76
4864.00,0.76
4862.00,0.76
4860.00,0.76
4858.00,0.76
4856.00,0.76
4854.00,0.76
4852.00,0.76
4850.00,0.76
4848.00,0.76
4846.00,0.77
4844.00,0.77
4842.00,0.77
4840.00,0.77
4838.00,0.77
4836.00,0.77
4834.00,0.77
4832.00,0.77
4830.00,0.77
4828.00,0.77
4826.00,0.77
4824.00,0.77
4822.00,0.77
4820.00,0.77
4818.00,0.77
4816.00,0.78
4814.00,0.78
4812.00,0.78
4810.00,0.78
4808.00,0.78
4806.00,0.78
4804.00,0.78
4802.00,0.78
4800.00,0.78
4798.00,0.78
4796.00,0.78
4794.00,0.78
4792.00,0.78
4790.00,0.78
4788.00,0.78
4786.00,0.78
4784.00,0.78
4782.00,0.78
4780.00,0.78
4778.00,0.78
4776.00,0.78
4774.00,0.78
4772.00,0.78
4770.00,0.78
4768.00,0.78
4766.00,0.78
4764.00,0.78
4762.00,0.79
4760.00,0.79
4758.00,0.79
4756.00,0.79
4754.00,0.79
4752.00,0.79
4750.00,0.79
4748.00,0.79
4746.00,0.79
4744.00,0.79
4742.00,0.80
4740.00,0.80
4738.00,0.80
4736.00,0.80
4734.00,0.80
4732.00,0.80
4730.00,0.80
4728.00,0.80
4726.00,0.80
4724.00,0.80
4722.00,0.80
4720.00,0.80
4718.00,0.80
4716.00,0.80
4714.00,0.80
4712.00,0.80
4710.00,0.80
4708.00,0.80
4706.00,0.80
4704.00,0.80
4702.00,0.80
4700.00,0.80
4698.00,0.80
4696.00,0.81
4694.00,0.81
4692.00,0.81
4690.00,0.81
4688.00,0.81
4686.00,0.81
4684.00,0.81
4682.00,0.81
4680.00,0.81
4678.00,0.81
4676.00,0.81
4674.00,0.81
4672.00,0.81
4670.00,0.81
4668.00,0.81
4666.00,0.81
4664.00,0.81
4662.00,0.81
4660.00,0.81
4658.00,0.81
4656.00,0.81
4654.00,0.81
4652.00,0.82
4650.00,0.82
4648.00,0.82
4646.00,0.82
4644.00,0.82
4642.00,0.82
4640.00,0.82
4638.00,0.82
4636.00,0.82
4634.00,0.82
4632.00,0.82
4630.00,0.82
4628.00,0.82
4626.00,0.82
4624.00,0.82
4622.00,0.82
4620.00,0.82
4618.00,0.82
4616.00,0.82
4614.00,0.82
4612.00,0.82
4610.00,0.82
4608.00,0.82
4606.00,0.82
4604.00,0.82
4602.00,0.82
4600.00,0.82
4598.00,0.82
4596.00,0.82
4594.00,0.82
4592.00,0.82
4590.00,0.82
4588.00,0.82
4586.00,0.82
4584.00,0.83
4582.00,0.83
4580.00,0.83
4578.00,0.83
4576.00,0.83
4574.00,0.83
4572.00,0.83
4570.00,0.83
4568.00,0.83
4566.00,0.83
4564.00,0.83
4562.00,0.83
4560.00,0.83
4558.00,0.83
4556.00,0.83
4554.00,0.83
4552.00,0.83
4550.00,0.83
4548.00,0.83
4546.00,0.83
4544.00,0.83
4542.00,0.83
4540.00,0.83
4538.00,0.83
4536.00,0.83
4534.00,0.83
4532.00,0.83
4530.00,0.83
4528.00,0.83
4526.00,0.83
4524.00,0.83
4522.00,0.83
4520.00,0.83
4518.00,0.83
4516.00,0.83
4514.00,0.83
4512.00,0.83
4510.00,0.83
4508.00,0.83
4506.00,0.83
4504.00,0.83
4502.00,0.83
4500.00,0.83
4498.00,0.83
4496.00,0.83
4494.00,0.83
4492.00,0.83
4490.00,0.83
4488.00,0.83
4486.00,0.83
4484.00,0.83
4482.00,0.83
4480.00,0.83
4478.00,0.83
4476.00,0.83
4474.00,0.83
4472.00,0.83
4470.00,0.83
4468.00,0.82
4466.00,0.82
4464.00,0.82
4462.00,0.82
4460.00,0.82
4458.00,0.82
4456.00,0.82
4454.00,0.81
4452.00,0.81
4450.00,0.81
4448.00,0.81
4446.00,0.81
4444.00,0.80
4442.00,0.80
4440.00,0.80
4438.00,0.79
4436.00,0.79
4434.00,0.79
4432.00,0.78
4430.00,0.78
4428.00,0.78
4426.00,0.77
4424.00,0.77
4422.00,0.76
4420.00,0.76
4418.00,0.76
4416.00,0.75
4414.00,0.75
4412.00,0.75
4410.00,0.75
4408.00,0.75
4406.00,0.75
4404.00,0.75
4402.00,0.75
4400.00,0.75
4398.00,0.75
4396.00,0.75
4394.00,0.76
4392.00,0.76
4390.00,0.76
4388.00,0.76
4386.00,0.77
4384.00,0.77
4382.00,0.77
4380.00,0.77
4378.00,0.78
4376.00,0.78
4374.00,0.78
4372.00,0.78
4370.00,0.78
4368.00,0.78
4366.00,0.78
4364.00,0.78
4362.00,0.78
4360.00,0.77
4358.00,0.77
4356.00,0.77
4354.00,0.76
4352.00,0.76
4350.00,0.76
4348.00,0.76
4346.00,0.75
4344.00,0.75
4342.00,0.75
4340.00,0.75
4338.00,0.75
4336.00,0.75
4334.00,0.75
4332.00,0.75
4330.00,0.76
4328.00,0.76
4326.00,0.76
4324.00,0.77
4322.00,0.77
4320.00,0.78
4318.00,0.78
4316.00,0.78
4314.00,0.79
4312.00,0.79
4310.00,0.80
4308.00,0.80
4306.00,0.80
4304.00,0.81
4302.00,0.81
4300.00,0.81
4298.00,0.81
4296.00,0.82
4294.00,0.82
4292.00,0.82
4290.00,0.82
4288.00,0.82
4286.00,0.82
4284.00,0.82
4282.00,0.82
4280.00,0.83
4278.00,0.83
4276.00,0.83
4274.00,0.82
4272.00,0.82
4270.00,0.82
4268.00,0.82
4266.00,0.82
4264.00,0.81
4262.00,0.81
4260.00,0.81
4258.00,0.81
4256.00,0.81
4254.00,0.80
4252.00,0.80
4250.00,0.80
4248.00,0.80
4246.00,0.81
4244.00,0.81
4242.00,0.81
4240.00,0.81
4238.00,0.81
4236.00,0.81
4234.00,0.82
4232.00,0.82
4230.00,0.82
4228.00,0.82
4226.00,0.82
4224.00,0.82
4222.00,0.83
4220.00,0.83
4218.00,0.83
4216.00,0.83
4214.00,0.83
4212.00,0.83
4210.00,0.83
4208.00,0.83
4206.00,0.83
4204.00,0.83
4202.00,0.83
4200.00,0.83
4198.00,0.83
4196.00,0.83
4194.00,0.83
4192.00,0.83
4190.00,0.83
4188.00,0.83
4186.00,0.83
4184.00,0.83
4182.00,0.83
4180.00,0.83
4178.00,0.83
4176.00,0.83
4174.00,0.82
4172.00,0.82
4170.00,0.82
4168.00,0.82
4166.00,0.82
4164.00,0.82
4162.00,0.82
4160.00,0.82
4158.00,0.82
4156.00,0.82
4154.00,0.82
4152.00,0.82
4150.00,0.83
4148.00,0.83
4146.00,0.83
4144.00,0.83
4142.00,0.83
4140.00,0.83
4138.00,0.83
4136.00,0.83
4134.00,0.83
4132.00,0.83
4130.00,0.83
4128.00,0.83
4126.00,0.83
4124.00,0.83
4122.00,0.83
4120.00,0.83
4118.00,0.83
4116.00,0.83
4114.00,0.83
4112.00,0.82
4110.00,0.82
4108.00,0.82
4106.00,0.82
4104.00,0.82
4102.00,0.83
4100.00,0.83
4098.00,0.83
4096.00,0.83
4094.00,0.83
4092.00,0.83
4090.00,0.83
4088.00,0.82
4086.00,0.82
4084.00,0.82
4082.00,0.82
4080.00,0.81
4078.00,0.81
4076.00,0.81
4074.00,0.81
4072.00,0.81
4070.00,0.80
4068.00,0.80
4066.00,0.80
4064.00,0.80
4062.00,0.80
4060.00,0.81
4058.00,0.81
4056.00,0.81
4054.00,0.81
4052.00,0.81
4050.00,0.81
4048.00,0.81
4046.00,0.81
4044.00,0.81
4042.00,0.81
4040.00,0.81
4038.00,0.81
4036.00,0.81
4034.00,0.81
4032.00,0.81
4030.00,0.81
4028.00,0.81
4026.00,0.82
4024.00,0.82
4022.00,0.82
4020.00,0.82
4018.00,0.82
4016.00,0.82
4014.00,0.82
4012.00,0.82
4010.00,0.82
4008.00,0.82
4006.00,0.82
4004.00,0.82
4002.00,0.83
4000.00,0.83
