创建为新数据集,样品 1720 用户 Administrator 日期 星期三, 三月 15 2017
cm-1,%T
10000.00,0.76
9998.00,0.76
9996.00,0.76
9994.00,0.77
9992.00,0.77
9990.00,0.77
9988.00,0.78
9986.00,0.78
9984.00,0.78
9982.00,0.77
9980.00,0.77
9978.00,0.76
9976.00,0.75
9974.00,0.75
9972.00,0.74
9970.00,0.74
9968.00,0.73
9966.00,0.73
9964.00,0.73
9962.00,0.73
9960.00,0.73
9958.00,0.73
9956.00,0.73
9954.00,0.74
9952.00,0.74
9950.00,0.74
9948.00,0.75
9946.00,0.75
9944.00,0.75
9942.00,0.75
9940.00,0.74
9938.00,0.74
9936.00,0.73
9934.00,0.72
9932.00,0.72
9930.00,0.71
9928.00,0.71
9926.00,0.71
9924.00,0.71
9922.00,0.72
9920.00,0.72
9918.00,0.73
9916.00,0.73
9914.00,0.73
9912.00,0.74
9910.00,0.74
9908.00,0.74
9906.00,0.74
9904.00,0.74
9902.00,0.73
9900.00,0.73
9898.00,0.73
9896.00,0.73
9894.00,0.73
9892.00,0.73
9890.00,0.74
9888.00,0.74
9886.00,0.74
9884.00,0.74
9882.00,0.74
9880.00,0.74
9878.00,0.73
9876.00,0.73
9874.00,0.73
9872.00,0.73
9870.00,0.73
9868.00,0.72
9866.00,0.72
9864.00,0.71
9862.00,0.71
9860.00,0.70
9858.00,0.70
9856.00,0.70
9854.00,0.69
9852.00,0.69
9850.00,0.70
9848.00,0.70
9846.00,0.70
9844.00,0.70
9842.00,0.70
9840.00,0.70
9838.00,0.70
9836.00,0.70
9834.00,0.70
9832.00,0.70
9830.00,0.70
9828.00,0.70
9826.00,0.70
9824.00,0.70
9822.00,0.70
9820.00,0.70
9818.00,0.70
9816.00,0.71
9814.00,0.71
9812.00,0.72
9810.00,0.73
9808.00,0.73
9806.00,0.74
9804.00,0.74
9802.00,0.74
9800.00,0.74
9798.00,0.74
9796.00,0.74
9794.00,0.74
9792.00,0.73
9790.00,0.73
9788.00,0.73
9786.00,0.73
9784.00,0.73
9782.00,0.73
9780.00,0.73
9778.00,0.73
9776.00,0.73
9774.00,0.73
9772.00,0.73
9770.00,0.73
9768.00,0.72
9766.00,0.72
9764.00,0.72
9762.00,0.71
9760.00,0.71
9758.00,0.71
9756.00,0.71
9754.00,0.71
9752.00,0.71
9750.00,0.71
9748.00,0.71
9746.00,0.71
9744.00,0.71
9742.00,0.71
9740.00,0.71
9738.00,0.72
9736.00,0.72
9734.00,0.72
9732.00,0.72
9730.00,0.72
9728.00,0.72
9726.00,0.72
9724.00,0.71
9722.00,0.71
9720.00,0.71
9718.00,0.71
9716.00,0.71
9714.00,0.71
9712.00,0.71
9710.00,0.71
9708.00,0.71
9706.00,0.71
9704.00,0.71
9702.00,0.71
9700.00,0.71
9698.00,0.71
9696.00,0.71
9694.00,0.71
9692.00,0.71
9690.00,0.71
9688.00,0.72
9686.00,0.72
9684.00,0.72
9682.00,0.72
9680.00,0.72
9678.00,0.72
9676.00,0.72
9674.00,0.72
9672.00,0.72
9670.00,0.71
9668.00,0.71
9666.00,0.71
9664.00,0.71
9662.00,0.71
9660.00,0.71
9658.00,0.72
9656.00,0.72
9654.00,0.72
9652.00,0.72
9650.00,0.72
9648.00,0.71
9646.00,0.71
9644.00,0.71
9642.00,0.71
9640.00,0.71
9638.00,0.71
9636.00,0.71
9634.00,0.72
9632.00,0.72
9630.00,0.72
9628.00,0.73
9626.00,0.73
9624.00,0.73
9622.00,0.73
9620.00,0.73
9618.00,0.73
9616.00,0.73
9614.00,0.73
9612.00,0.73
9610.00,0.72
9608.00,0.72
9606.00,0.72
9604.00,0.72
9602.00,0.72
9600.00,0.72
9598.00,0.72
9596.00,0.72
9594.00,0.72
9592.00,0.72
9590.00,0.72
9588.00,0.73
9586.00,0.73
9584.00,0.73
9582.00,0.73
9580.00,0.74
9578.00,0.74
9576.00,0.74
9574.00,0.74
9572.00,0.74
9570.00,0.74
9568.00,0.74
9566.00,0.73
9564.00,0.73
9562.00,0.73
9560.00,0.72
9558.00,0.72
9556.00,0.72
9554.00,0.71
9552.00,0.71
9550.00,0.71
9548.00,0.71
9546.00,0.71
9544.00,0.71
9542.00,0.72
9540.00,0.72
9538.00,0.72
9536.00,0.73
9534.00,0.73
9532.00,0.73
9530.00,0.73
9528.00,0.73
9526.00,0.73
9524.00,0.74
9522.00,0.74
9520.00,0.74
9518.00,0.74
9516.00,0.74
9514.00,0.73
9512.00,0.73
9510.00,0.73
9508.00,0.72
9506.00,0.72
9504.00,0.72
9502.00,0.71
9500.00,0.71
9498.00,0.71
9496.00,0.71
9494.00,0.71
9492.00,0.71
9490.00,0.71
9488.00,0.71
9486.00,0.71
9484.00,0.71
9482.00,0.71
9480.00,0.71
9478.00,0.71
9476.00,0.70
9474.00,0.70
9472.00,0.69
9470.00,0.69
9468.00,0.68
9466.00,0.68
9464.00,0.68
9462.00,0.68
9460.00,0.68
9458.00,0.69
9456.00,0.69
9454.00,0.69
9452.00,0.69
9450.00,0.69
9448.00,0.69
9446.00,0.70
9444.00,0.70
9442.00,0.70
9440.00,0.71
9438.00,0.71
9436.00,0.71
9434.00,0.72
9432.00,0.72
9430.00,0.72
9428.00,0.72
9426.00,0.72
9424.00,0.72
9422.00,0.71
9420.00,0.71
9418.00,0.71
9416.00,0.70
9414.00,0.70
9412.00,0.70
9410.00,0.70
9408.00,0.70
9406.00,0.70
9404.00,0.70
9402.00,0.70
9400.00,0.70
9398.00,0.71
9396.00,0.71
9394.00,0.71
9392.00,0.71
9390.00,0.71
9388.00,0.71
9386.00,0.72
9384.00,0.72
9382.00,0.72
9380.00,0.72
9378.00,0.73
9376.00,0.73
9374.00,0.73
9372.00,0.73
9370.00,0.73
9368.00,0.72
9366.00,0.72
9364.00,0.72
9362.00,0.72
9360.00,0.72
9358.00,0.73
9356.00,0.73
9354.00,0.73
9352.00,0.73
9350.00,0.73
9348.00,0.73
9346.00,0.73
9344.00,0.72
9342.00,0.72
9340.00,0.72
9338.00,0.71
9336.00,0.71
9334.00,0.71
9332.00,0.70
9330.00,0.70
9328.00,0.70
9326.00,0.70
9324.00,0.70
9322.00,0.70
9320.00,0.70
9318.00,0.70
9316.00,0.71
9314.00,0.71
9312.00,0.71
9310.00,0.71
9308.00,0.71
9306.00,0.71
9304.00,0.71
9302.00,0.71
9300.00,0.71
9298.00,0.71
9296.00,0.71
9294.00,0.70
9292.00,0.70
9290.00,0.70
9288.00,0.70
9286.00,0.70
9284.00,0.70
9282.00,0.70
9280.00,0.71
9278.00,0.71
9276.00,0.71
9274.00,0.72
9272.00,0.72
9270.00,0.72
9268.00,0.72
9266.00,0.72
9264.00,0.72
9262.00,0.72
9260.00,0.72
9258.00,0.72
9256.00,0.72
9254.00,0.71
9252.00,0.71
9250.00,0.71
9248.00,0.70
9246.00,0.70
9244.00,0.70
9242.00,0.70
9240.00,0.71
9238.00,0.71
9236.00,0.71
9234.00,0.72
9232.00,0.72
9230.00,0.72
9228.00,0.72
9226.00,0.72
9224.00,0.72
9222.00,0.72
9220.00,0.72
9218.00,0.71
9216.00,0.71
9214.00,0.71
9212.00,0.71
9210.00,0.71
9208.00,0.71
9206.00,0.71
9204.00,0.71
9202.00,0.71
9200.00,0.71
9198.00,0.71
9196.00,0.71
9194.00,0.71
9192.00,0.71
9190.00,0.71
9188.00,0.71
9186.00,0.72
9184.00,0.72
9182.00,0.72
9180.00,0.72
9178.00,0.73
9176.00,0.73
9174.00,0.73
9172.00,0.73
9170.00,0.73
9168.00,0.73
9166.00,0.72
9164.00,0.72
9162.00,0.71
9160.00,0.71
9158.00,0.70
9156.00,0.70
9154.00,0.70
9152.00,0.70
9150.00,0.70
9148.00,0.71
9146.00,0.71
9144.00,0.71
9142.00,0.71
9140.00,0.71
9138.00,0.71
9136.00,0.71
9134.00,0.71
9132.00,0.70
9130.00,0.70
9128.00,0.71
9126.00,0.71
9124.00,0.71
9122.00,0.71
9120.00,0.72
9118.00,0.72
9116.00,0.72
9114.00,0.72
9112.00,0.72
9110.00,0.72
9108.00,0.72
9106.00,0.71
9104.00,0.71
9102.00,0.71
9100.00,0.70
9098.00,0.70
9096.00,0.70
9094.00,0.70
9092.00,0.70
9090.00,0.71
9088.00,0.71
9086.00,0.71
9084.00,0.71
9082.00,0.71
9080.00,0.71
9078.00,0.71
9076.00,0.72
9074.00,0.72
9072.00,0.72
9070.00,0.72
9068.00,0.72
9066.00,0.72
9064.00,0.72
9062.00,0.72
9060.00,0.72
9058.00,0.72
9056.00,0.72
9054.00,0.71
9052.00,0.71
9050.00,0.71
9048.00,0.71
9046.00,0.71
9044.00,0.71
9042.00,0.71
9040.00,0.71
9038.00,0.71
9036.00,0.71
9034.00,0.71
9032.00,0.71
9030.00,0.71
9028.00,0.71
9026.00,0.71
9024.00,0.71
9022.00,0.71
9020.00,0.71
9018.00,0.72
9016.00,0.72
9014.00,0.72
9012.00,0.72
9010.00,0.72
9008.00,0.72
9006.00,0.71
9004.00,0.71
9002.00,0.71
9000.00,0.71
8998.00,0.71
8996.00,0.71
8994.00,0.72
8992.00,0.72
8990.00,0.72
8988.00,0.72
8986.00,0.73
8984.00,0.73
8982.00,0.73
8980.00,0.73
8978.00,0.73
8976.00,0.72
8974.00,0.72
8972.00,0.72
8970.00,0.72
8968.00,0.72
8966.00,0.71
8964.00,0.71
8962.00,0.71
8960.00,0.71
8958.00,0.72
8956.00,0.72
8954.00,0.72
8952.00,0.72
8950.00,0.72
8948.00,0.72
8946.00,0.72
8944.00,0.72
8942.00,0.72
8940.00,0.72
8938.00,0.72
8936.00,0.71
8934.00,0.72
8932.00,0.72
8930.00,0.72
8928.00,0.72
8926.00,0.72
8924.00,0.72
8922.00,0.73
8920.00,0.73
8918.00,0.73
8916.00,0.73
8914.00,0.73
8912.00,0.73
8910.00,0.73
8908.00,0.73
8906.00,0.73
8904.00,0.72
8902.00,0.72
8900.00,0.72
8898.00,0.72
8896.00,0.72
8894.00,0.72
8892.00,0.72
8890.00,0.72
8888.00,0.72
8886.00,0.72
8884.00,0.72
8882.00,0.71
8880.00,0.71
8878.00,0.71
8876.00,0.71
8874.00,0.71
8872.00,0.71
8870.00,0.71
8868.00,0.71
8866.00,0.71
8864.00,0.71
8862.00,0.71
8860.00,0.71
8858.00,0.71
8856.00,0.71
8854.00,0.71
8852.00,0.71
8850.00,0.71
8848.00,0.71
8846.00,0.71
8844.00,0.71
8842.00,0.71
8840.00,0.71
8838.00,0.71
8836.00,0.71
8834.00,0.71
8832.00,0.71
8830.00,0.71
8828.00,0.71
8826.00,0.72
8824.00,0.72
8822.00,0.72
8820.00,0.72
8818.00,0.72
8816.00,0.72
8814.00,0.72
8812.00,0.71
8810.00,0.71
8808.00,0.71
8806.00,0.70
8804.00,0.70
8802.00,0.70
8800.00,0.70
8798.00,0.71
8796.00,0.71
8794.00,0.71
8792.00,0.71
8790.00,0.71
8788.00,0.71
8786.00,0.71
8784.00,0.71
8782.00,0.71
8780.00,0.71
8778.00,0.71
8776.00,0.71
8774.00,0.71
8772.00,0.71
8770.00,0.71
8768.00,0.71
8766.00,0.72
8764.00,0.72
8762.00,0.72
8760.00,0.72
8758.00,0.72
8756.00,0.71
8754.00,0.71
8752.00,0.71
8750.00,0.71
8748.00,0.71
8746.00,0.71
8744.00,0.71
8742.00,0.71
8740.00,0.71
8738.00,0.71
8736.00,0.70
8734.00,0.70
8732.00,0.70
8730.00,0.70
8728.00,0.70
8726.00,0.70
8724.00,0.71
8722.00,0.71
8720.00,0.71
8718.00,0.71
8716.00,0.71
8714.00,0.71
8712.00,0.71
8710.00,0.71
8708.00,0.71
8706.00,0.71
8704.00,0.71
8702.00,0.71
8700.00,0.71
8698.00,0.71
8696.00,0.71
8694.00,0.71
8692.00,0.71
8690.00,0.71
8688.00,0.70
8686.00,0.70
8684.00,0.70
8682.00,0.70
8680.00,0.70
8678.00,0.70
8676.00,0.70
8674.00,0.70
8672.00,0.70
8670.00,0.71
8668.00,0.71
8666.00,0.71
8664.00,0.71
8662.00,0.71
8660.00,0.71
8658.00,0.71
8656.00,0.72
8654.00,0.72
8652.00,0.72
8650.00,0.72
8648.00,0.72
8646.00,0.72
8644.00,0.72
8642.00,0.72
8640.00,0.72
8638.00,0.71
8636.00,0.71
8634.00,0.71
8632.00,0.71
8630.00,0.71
8628.00,0.71
8626.00,0.71
8624.00,0.71
8622.00,0.71
8620.00,0.71
8618.00,0.71
8616.00,0.71
8614.00,0.71
8612.00,0.71
8610.00,0.71
8608.00,0.71
8606.00,0.71
8604.00,0.72
8602.00,0.72
8600.00,0.71
8598.00,0.71
8596.00,0.71
8594.00,0.71
8592.00,0.71
8590.00,0.71
8588.00,0.71
8586.00,0.71
8584.00,0.71
8582.00,0.72
8580.00,0.72
8578.00,0.72
8576.00,0.72
8574.00,0.72
8572.00,0.72
8570.00,0.72
8568.00,0.72
8566.00,0.72
8564.00,0.72
8562.00,0.72
8560.00,0.72
8558.00,0.72
8556.00,0.72
8554.00,0.72
8552.00,0.72
8550.00,0.72
8548.00,0.72
8546.00,0.71
8544.00,0.71
8542.00,0.71
8540.00,0.71
8538.00,0.71
8536.00,0.71
8534.00,0.71
8532.00,0.70
8530.00,0.70
8528.00,0.70
8526.00,0.70
8524.00,0.70
8522.00,0.70
8520.00,0.70
8518.00,0.71
8516.00,0.71
8514.00,0.71
8512.00,0.71
8510.00,0.71
8508.00,0.70
8506.00,0.70
8504.00,0.70
8502.00,0.70
8500.00,0.70
8498.00,0.70
8496.00,0.70
8494.00,0.71
8492.00,0.71
8490.00,0.71
8488.00,0.71
8486.00,0.71
8484.00,0.71
8482.00,0.71
8480.00,0.71
8478.00,0.71
8476.00,0.71
8474.00,0.71
8472.00,0.71
8470.00,0.71
8468.00,0.71
8466.00,0.71
8464.00,0.70
8462.00,0.70
8460.00,0.70
8458.00,0.70
8456.00,0.70
8454.00,0.70
8452.00,0.70
8450.00,0.71
8448.00,0.71
8446.00,0.71
8444.00,0.71
8442.00,0.71
8440.00,0.71
8438.00,0.71
8436.00,0.71
8434.00,0.70
8432.00,0.70
8430.00,0.70
8428.00,0.70
8426.00,0.70
8424.00,0.70
8422.00,0.70
8420.00,0.70
8418.00,0.71
8416.00,0.71
8414.00,0.71
8412.00,0.71
8410.00,0.71
8408.00,0.71
8406.00,0.71
8404.00,0.71
8402.00,0.70
8400.00,0.70
8398.00,0.70
8396.00,0.70
8394.00,0.70
8392.00,0.70
8390.00,0.70
8388.00,0.70
8386.00,0.70
8384.00,0.70
8382.00,0.70
8380.00,0.70
8378.00,0.71
8376.00,0.71
8374.00,0.71
8372.00,0.71
8370.00,0.71
8368.00,0.71
8366.00,0.71
8364.00,0.71
8362.00,0.71
8360.00,0.71
8358.00,0.71
8356.00,0.71
8354.00,0.72
8352.00,0.72
8350.00,0.72
8348.00,0.71
8346.00,0.71
8344.00,0.71
8342.00,0.71
8340.00,0.71
8338.00,0.70
8336.00,0.70
8334.00,0.70
8332.00,0.70
8330.00,0.70
8328.00,0.70
8326.00,0.70
8324.00,0.70
8322.00,0.70
8320.00,0.70
8318.00,0.70
8316.00,0.71
8314.00,0.71
8312.00,0.71
8310.00,0.72
8308.00,0.72
8306.00,0.72
8304.00,0.72
8302.00,0.72
8300.00,0.72
8298.00,0.72
8296.00,0.72
8294.00,0.72
8292.00,0.71
8290.00,0.71
8288.00,0.71
8286.00,0.71
8284.00,0.71
8282.00,0.71
8280.00,0.71
8278.00,0.70
8276.00,0.70
8274.00,0.70
8272.00,0.70
8270.00,0.70
8268.00,0.70
8266.00,0.70
8264.00,0.70
8262.00,0.70
8260.00,0.70
8258.00,0.70
8256.00,0.70
8254.00,0.70
8252.00,0.70
8250.00,0.70
8248.00,0.70
8246.00,0.70
8244.00,0.70
8242.00,0.70
8240.00,0.71
8238.00,0.71
8236.00,0.71
8234.00,0.71
8232.00,0.71
8230.00,0.71
8228.00,0.71
8226.00,0.71
8224.00,0.71
8222.00,0.71
8220.00,0.71
8218.00,0.71
8216.00,0.70
8214.00,0.70
8212.00,0.70
8210.00,0.70
8208.00,0.71
8206.00,0.71
8204.00,0.71
8202.00,0.71
8200.00,0.72
8198.00,0.72
8196.00,0.72
8194.00,0.72
8192.00,0.72
8190.00,0.71
8188.00,0.71
8186.00,0.71
8184.00,0.71
8182.00,0.71
8180.00,0.72
8178.00,0.72
8176.00,0.72
8174.00,0.72
8172.00,0.72
8170.00,0.72
8168.00,0.72
8166.00,0.71
8164.00,0.71
8162.00,0.71
8160.00,0.71
8158.00,0.70
8156.00,0.70
8154.00,0.70
8152.00,0.70
8150.00,0.71
8148.00,0.71
8146.00,0.71
8144.00,0.71
8142.00,0.71
8140.00,0.72
8138.00,0.72
8136.00,0.72
8134.00,0.72
8132.00,0.72
8130.00,0.71
8128.00,0.71
8126.00,0.71
8124.00,0.71
8122.00,0.71
8120.00,0.71
8118.00,0.71
8116.00,0.71
8114.00,0.71
8112.00,0.71
8110.00,0.71
8108.00,0.70
8106.00,0.70
8104.00,0.70
8102.00,0.70
8100.00,0.70
8098.00,0.70
8096.00,0.70
8094.00,0.70
8092.00,0.70
8090.00,0.70
8088.00,0.70
8086.00,0.70
8084.00,0.70
8082.00,0.70
8080.00,0.70
8078.00,0.70
8076.00,0.70
8074.00,0.70
8072.00,0.70
8070.00,0.70
8068.00,0.71
8066.00,0.71
8064.00,0.71
8062.00,0.71
8060.00,0.71
8058.00,0.71
8056.00,0.71
8054.00,0.71
8052.00,0.71
8050.00,0.71
8048.00,0.71
8046.00,0.71
8044.00,0.71
8042.00,0.71
8040.00,0.71
8038.00,0.70
8036.00,0.70
8034.00,0.70
8032.00,0.70
8030.00,0.70
8028.00,0.70
8026.00,0.70
8024.00,0.70
8022.00,0.70
8020.00,0.70
8018.00,0.70
8016.00,0.71
8014.00,0.71
8012.00,0.71
8010.00,0.71
8008.00,0.71
8006.00,0.71
8004.00,0.71
8002.00,0.71
8000.00,0.72
7998.00,0.72
7996.00,0.72
7994.00,0.72
7992.00,0.72
7990.00,0.72
7988.00,0.72
7986.00,0.72
7984.00,0.72
7982.00,0.72
7980.00,0.72
7978.00,0.72
7976.00,0.71
7974.00,0.71
7972.00,0.71
7970.00,0.71
7968.00,0.71
7966.00,0.71
7964.00,0.71
7962.00,0.71
7960.00,0.71
7958.00,0.71
7956.00,0.71
7954.00,0.71
7952.00,0.71
7950.00,0.71
7948.00,0.71
7946.00,0.71
7944.00,0.71
7942.00,0.71
7940.00,0.71
7938.00,0.71
7936.00,0.72
7934.00,0.72
7932.00,0.72
7930.00,0.72
7928.00,0.72
7926.00,0.72
7924.00,0.71
7922.00,0.71
7920.00,0.71
7918.00,0.71
7916.00,0.71
7914.00,0.71
7912.00,0.71
7910.00,0.71
7908.00,0.72
7906.00,0.72
7904.00,0.72
7902.00,0.72
7900.00,0.72
7898.00,0.72
7896.00,0.72
7894.00,0.72
7892.00,0.71
7890.00,0.71
7888.00,0.71
7886.00,0.71
7884.00,0.71
7882.00,0.71
7880.00,0.70
7878.00,0.70
7876.00,0.70
7874.00,0.70
7872.00,0.70
7870.00,0.70
7868.00,0.70
7866.00,0.70
7864.00,0.70
7862.00,0.70
7860.00,0.71
7858.00,0.71
7856.00,0.71
7854.00,0.71
7852.00,0.71
7850.00,0.71
7848.00,0.71
7846.00,0.71
7844.00,0.71
7842.00,0.71
7840.00,0.71
7838.00,0.71
7836.00,0.71
7834.00,0.71
7832.00,0.71
7830.00,0.71
7828.00,0.71
7826.00,0.71
7824.00,0.72
7822.00,0.72
7820.00,0.72
7818.00,0.72
7816.00,0.72
7814.00,0.72
7812.00,0.72
7810.00,0.72
7808.00,0.72
7806.00,0.72
7804.00,0.72
7802.00,0.72
7800.00,0.72
7798.00,0.72
7796.00,0.72
7794.00,0.72
7792.00,0.72
7790.00,0.72
7788.00,0.72
7786.00,0.71
7784.00,0.71
7782.00,0.71
7780.00,0.71
7778.00,0.71
7776.00,0.71
7774.00,0.71
7772.00,0.71
7770.00,0.71
7768.00,0.71
7766.00,0.71
7764.00,0.71
7762.00,0.71
7760.00,0.71
7758.00,0.71
7756.00,0.71
7754.00,0.71
7752.00,0.71
7750.00,0.72
7748.00,0.72
7746.00,0.72
7744.00,0.72
7742.00,0.72
7740.00,0.72
7738.00,0.72
7736.00,0.72
7734.00,0.72
7732.00,0.72
7730.00,0.72
7728.00,0.72
7726.00,0.72
7724.00,0.72
7722.00,0.72
7720.00,0.72
7718.00,0.72
7716.00,0.72
7714.00,0.72
7712.00,0.72
7710.00,0.72
7708.00,0.72
7706.00,0.72
7704.00,0.72
7702.00,0.72
7700.00,0.72
7698.00,0.72
7696.00,0.72
7694.00,0.71
7692.00,0.71
7690.00,0.71
7688.00,0.71
7686.00,0.71
7684.00,0.71
7682.00,0.72
7680.00,0.72
7678.00,0.72
7676.00,0.72
7674.00,0.72
7672.00,0.72
7670.00,0.72
7668.00,0.71
7666.00,0.71
7664.00,0.71
7662.00,0.71
7660.00,0.71
7658.00,0.71
7656.00,0.71
7654.00,0.71
7652.00,0.71
7650.00,0.71
7648.00,0.71
7646.00,0.71
7644.00,0.71
7642.00,0.71
7640.00,0.71
7638.00,0.71
7636.00,0.71
7634.00,0.71
7632.00,0.71
7630.00,0.71
7628.00,0.71
7626.00,0.71
7624.00,0.71
7622.00,0.71
7620.00,0.71
7618.00,0.71
7616.00,0.71
7614.00,0.71
7612.00,0.71
7610.00,0.71
7608.00,0.71
7606.00,0.71
7604.00,0.72
7602.00,0.72
7600.00,0.72
7598.00,0.72
7596.00,0.72
7594.00,0.72
7592.00,0.72
7590.00,0.72
7588.00,0.72
7586.00,0.72
7584.00,0.72
7582.00,0.72
7580.00,0.71
7578.00,0.71
7576.00,0.71
7574.00,0.71
7572.00,0.71
7570.00,0.71
7568.00,0.71
7566.00,0.71
7564.00,0.71
7562.00,0.71
7560.00,0.71
7558.00,0.71
7556.00,0.71
7554.00,0.71
7552.00,0.71
7550.00,0.71
7548.00,0.71
7546.00,0.71
7544.00,0.71
7542.00,0.71
7540.00,0.71
7538.00,0.71
7536.00,0.71
7534.00,0.71
7532.00,0.71
7530.00,0.71
7528.00,0.71
7526.00,0.71
7524.00,0.71
7522.00,0.71
7520.00,0.71
7518.00,0.71
7516.00,0.71
7514.00,0.71
7512.00,0.72
7510.00,0.72
7508.00,0.72
7506.00,0.72
7504.00,0.72
7502.00,0.72
7500.00,0.72
7498.00,0.72
7496.00,0.72
7494.00,0.71
7492.00,0.71
7490.00,0.71
7488.00,0.71
7486.00,0.71
7484.00,0.71
7482.00,0.71
7480.00,0.71
7478.00,0.71
7476.00,0.71
7474.00,0.71
7472.00,0.71
7470.00,0.71
7468.00,0.71
7466.00,0.71
7464.00,0.70
7462.00,0.70
7460.00,0.70
7458.00,0.70
7456.00,0.70
7454.00,0.70
7452.00,0.71
7450.00,0.71
7448.00,0.71
7446.00,0.71
7444.00,0.71
7442.00,0.71
7440.00,0.72
7438.00,0.72
7436.00,0.72
7434.00,0.72
7432.00,0.72
7430.00,0.72
7428.00,0.71
7426.00,0.71
7424.00,0.71
7422.00,0.71
7420.00,0.70
7418.00,0.70
7416.00,0.70
7414.00,0.70
7412.00,0.70
7410.00,0.70
7408.00,0.70
7406.00,0.70
7404.00,0.71
7402.00,0.71
7400.00,0.71
7398.00,0.71
7396.00,0.71
7394.00,0.71
7392.00,0.71
7390.00,0.71
7388.00,0.71
7386.00,0.71
7384.00,0.71
7382.00,0.71
7380.00,0.71
7378.00,0.71
7376.00,0.71
7374.00,0.71
7372.00,0.71
7370.00,0.71
7368.00,0.71
7366.00,0.71
7364.00,0.70
7362.00,0.70
7360.00,0.70
7358.00,0.70
7356.00,0.70
7354.00,0.70
7352.00,0.70
7350.00,0.70
7348.00,0.70
7346.00,0.70
7344.00,0.70
7342.00,0.70
7340.00,0.70
7338.00,0.70
7336.00,0.70
7334.00,0.70
7332.00,0.70
7330.00,0.70
7328.00,0.70
7326.00,0.70
7324.00,0.70
7322.00,0.70
7320.00,0.70
7318.00,0.70
7316.00,0.70
7314.00,0.70
7312.00,0.70
7310.00,0.70
7308.00,0.70
7306.00,0.70
7304.00,0.70
7302.00,0.70
7300.00,0.70
7298.00,0.70
7296.00,0.71
7294.00,0.71
7292.00,0.71
7290.00,0.71
7288.00,0.71
7286.00,0.70
7284.00,0.70
7282.00,0.70
7280.00,0.70
7278.00,0.70
7276.00,0.70
7274.00,0.70
7272.00,0.70
7270.00,0.70
7268.00,0.70
7266.00,0.70
7264.00,0.70
7262.00,0.70
7260.00,0.70
7258.00,0.70
7256.00,0.70
7254.00,0.69
7252.00,0.69
7250.00,0.69
7248.00,0.69
7246.00,0.69
7244.00,0.69
7242.00,0.69
7240.00,0.69
7238.00,0.68
7236.00,0.68
7234.00,0.68
7232.00,0.68
7230.00,0.68
7228.00,0.68
7226.00,0.68
7224.00,0.68
7222.00,0.69
7220.00,0.69
7218.00,0.69
7216.00,0.69
7214.00,0.69
7212.00,0.69
7210.00,0.69
7208.00,0.68
7206.00,0.68
7204.00,0.68
7202.00,0.68
7200.00,0.68
7198.00,0.68
7196.00,0.68
7194.00,0.68
7192.00,0.68
7190.00,0.68
7188.00,0.68
7186.00,0.68
7184.00,0.67
7182.00,0.67
7180.00,0.67
7178.00,0.67
7176.00,0.67
7174.00,0.67
7172.00,0.67
7170.00,0.67
7168.00,0.67
7166.00,0.67
7164.00,0.67
7162.00,0.67
7160.00,0.67
7158.00,0.67
7156.00,0.67
7154.00,0.67
7152.00,0.66
7150.00,0.66
7148.00,0.66
7146.00,0.66
7144.00,0.66
7142.00,0.66
7140.00,0.66
7138.00,0.66
7136.00,0.66
7134.00,0.66
7132.00,0.66
7130.00,0.66
7128.00,0.65
7126.00,0.65
7124.00,0.65
7122.00,0.65
7120.00,0.65
7118.00,0.65
7116.00,0.65
7114.00,0.65
7112.00,0.65
7110.00,0.65
7108.00,0.65
7106.00,0.65
7104.00,0.65
7102.00,0.65
7100.00,0.65
7098.00,0.65
7096.00,0.65
7094.00,0.65
7092.00,0.65
7090.00,0.65
7088.00,0.65
7086.00,0.65
7084.00,0.65
7082.00,0.65
7080.00,0.65
7078.00,0.65
7076.00,0.65
7074.00,0.65
7072.00,0.65
7070.00,0.65
7068.00,0.65
7066.00,0.65
7064.00,0.65
7062.00,0.65
7060.00,0.65
7058.00,0.65
7056.00,0.64
7054.00,0.64
7052.00,0.64
7050.00,0.64
7048.00,0.64
7046.00,0.64
7044.00,0.64
7042.00,0.64
7040.00,0.64
7038.00,0.64
7036.00,0.64
7034.00,0.64
7032.00,0.64
7030.00,0.64
7028.00,0.64
7026.00,0.64
7024.00,0.64
7022.00,0.64
7020.00,0.64
7018.00,0.64
7016.00,0.64
7014.00,0.64
7012.00,0.64
7010.00,0.64
7008.00,0.64
7006.00,0.64
7004.00,0.64
7002.00,0.64
7000.00,0.64
6998.00,0.64
6996.00,0.64
6994.00,0.64
6992.00,0.64
6990.00,0.64
6988.00,0.64
6986.00,0.64
6984.00,0.64
6982.00,0.64
6980.00,0.64
6978.00,0.64
6976.00,0.64
6974.00,0.64
6972.00,0.64
6970.00,0.64
6968.00,0.64
6966.00,0.64
6964.00,0.64
6962.00,0.64
6960.00,0.63
6958.00,0.63
6956.00,0.63
6954.00,0.63
6952.00,0.63
6950.00,0.63
6948.00,0.63
6946.00,0.63
6944.00,0.63
6942.00,0.63
6940.00,0.63
6938.00,0.63
6936.00,0.63
6934.00,0.63
6932.00,0.63
6930.00,0.63
6928.00,0.64
6926.00,0.64
6924.00,0.64
6922.00,0.64
6920.00,0.64
6918.00,0.64
6916.00,0.64
6914.00,0.64
6912.00,0.64
6910.00,0.64
6908.00,0.64
6906.00,0.64
6904.00,0.63
6902.00,0.63
6900.00,0.63
6898.00,0.63
6896.00,0.64
6894.00,0.64
6892.00,0.64
6890.00,0.64
6888.00,0.64
6886.00,0.63
6884.00,0.63
6882.00,0.63
6880.00,0.63
6878.00,0.63
6876.00,0.63
6874.00,0.63
6872.00,0.63
6870.00,0.63
6868.00,0.64
6866.00,0.64
6864.00,0.64
6862.00,0.64
6860.00,0.64
6858.00,0.64
6856.00,0.64
6854.00,0.63
6852.00,0.63
6850.00,0.63
6848.00,0.63
6846.00,0.63
6844.00,0.63
6842.00,0.63
6840.00,0.63
6838.00,0.63
6836.00,0.64
6834.00,0.64
6832.00,0.64
6830.00,0.64
6828.00,0.64
6826.00,0.64
6824.00,0.64
6822.00,0.64
6820.00,0.64
6818.00,0.64
6816.00,0.64
6814.00,0.64
6812.00,0.64
6810.00,0.64
6808.00,0.64
6806.00,0.64
6804.00,0.64
6802.00,0.64
6800.00,0.64
6798.00,0.64
6796.00,0.64
6794.00,0.64
6792.00,0.64
6790.00,0.64
6788.00,0.64
6786.00,0.64
6784.00,0.64
6782.00,0.64
6780.00,0.64
6778.00,0.64
6776.00,0.64
6774.00,0.64
6772.00,0.65
6770.00,0.65
6768.00,0.65
6766.00,0.65
6764.00,0.65
6762.00,0.65
6760.00,0.65
6758.00,0.65
6756.00,0.65
6754.00,0.65
6752.00,0.65
6750.00,0.65
6748.00,0.65
6746.00,0.64
6744.00,0.64
6742.00,0.64
6740.00,0.64
6738.00,0.64
6736.00,0.64
6734.00,0.64
6732.00,0.64
6730.00,0.64
6728.00,0.64
6726.00,0.65
6724.00,0.65
6722.00,0.65
6720.00,0.65
6718.00,0.65
6716.00,0.65
6714.00,0.65
6712.00,0.65
6710.00,0.65
6708.00,0.65
6706.00,0.65
6704.00,0.65
6702.00,0.65
6700.00,0.65
6698.00,0.65
6696.00,0.65
6694.00,0.65
6692.00,0.65
6690.00,0.65
6688.00,0.65
6686.00,0.65
6684.00,0.65
6682.00,0.65
6680.00,0.65
6678.00,0.65
6676.00,0.65
6674.00,0.66
6672.00,0.66
6670.00,0.66
6668.00,0.66
6666.00,0.66
6664.00,0.66
6662.00,0.66
6660.00,0.66
6658.00,0.66
6656.00,0.66
6654.00,0.66
6652.00,0.66
6650.00,0.66
6648.00,0.66
6646.00,0.66
6644.00,0.66
6642.00,0.66
6640.00,0.66
6638.00,0.66
6636.00,0.66
6634.00,0.66
6632.00,0.66
6630.00,0.66
6628.00,0.66
6626.00,0.66
6624.00,0.66
6622.00,0.66
6620.00,0.66
6618.00,0.66
6616.00,0.66
6614.00,0.66
6612.00,0.66
6610.00,0.66
6608.00,0.66
6606.00,0.66
6604.00,0.66
6602.00,0.66
6600.00,0.66
6598.00,0.66
6596.00,0.66
6594.00,0.66
6592.00,0.66
6590.00,0.66
6588.00,0.66
6586.00,0.66
6584.00,0.66
6582.00,0.66
6580.00,0.66
6578.00,0.66
6576.00,0.66
6574.00,0.66
6572.00,0.66
6570.00,0.66
6568.00,0.66
6566.00,0.66
6564.00,0.67
6562.00,0.67
6560.00,0.67
6558.00,0.67
6556.00,0.67
6554.00,0.67
6552.00,0.67
6550.00,0.67
6548.00,0.67
6546.00,0.67
6544.00,0.67
6542.00,0.67
6540.00,0.67
6538.00,0.67
6536.00,0.67
6534.00,0.67
6532.00,0.66
6530.00,0.66
6528.00,0.66
6526.00,0.66
6524.00,0.66
6522.00,0.66
6520.00,0.66
6518.00,0.66
6516.00,0.66
6514.00,0.67
6512.00,0.67
6510.00,0.67
6508.00,0.67
6506.00,0.67
6504.00,0.67
6502.00,0.67
6500.00,0.67
6498.00,0.67
6496.00,0.67
6494.00,0.67
6492.00,0.67
6490.00,0.67
6488.00,0.67
6486.00,0.68
6484.00,0.68
6482.00,0.68
6480.00,0.68
6478.00,0.68
6476.00,0.68
6474.00,0.68
6472.00,0.68
6470.00,0.68
6468.00,0.68
6466.00,0.68
6464.00,0.68
6462.00,0.68
6460.00,0.68
6458.00,0.68
6456.00,0.68
6454.00,0.68
6452.00,0.68
6450.00,0.68
6448.00,0.68
6446.00,0.68
6444.00,0.68
6442.00,0.68
6440.00,0.68
6438.00,0.68
6436.00,0.68
6434.00,0.68
6432.00,0.68
6430.00,0.68
6428.00,0.68
6426.00,0.68
6424.00,0.68
6422.00,0.68
6420.00,0.68
6418.00,0.68
6416.00,0.68
6414.00,0.68
6412.00,0.68
6410.00,0.68
6408.00,0.68
6406.00,0.69
6404.00,0.69
6402.00,0.69
6400.00,0.69
6398.00,0.69
6396.00,0.69
6394.00,0.69
6392.00,0.69
6390.00,0.69
6388.00,0.69
6386.00,0.69
6384.00,0.69
6382.00,0.69
6380.00,0.68
6378.00,0.68
6376.00,0.68
6374.00,0.68
6372.00,0.68
6370.00,0.68
6368.00,0.68
6366.00,0.68
6364.00,0.68
6362.00,0.68
6360.00,0.68
6358.00,0.68
6356.00,0.68
6354.00,0.69
6352.00,0.69
6350.00,0.69
6348.00,0.69
6346.00,0.69
6344.00,0.69
6342.00,0.69
6340.00,0.69
6338.00,0.69
6336.00,0.69
6334.00,0.69
6332.00,0.69
6330.00,0.69
6328.00,0.69
6326.00,0.69
6324.00,0.69
6322.00,0.69
6320.00,0.69
6318.00,0.69
6316.00,0.69
6314.00,0.68
6312.00,0.68
6310.00,0.68
6308.00,0.68
6306.00,0.69
6304.00,0.69
6302.00,0.69
6300.00,0.69
6298.00,0.69
6296.00,0.69
6294.00,0.69
6292.00,0.69
6290.00,0.69
6288.00,0.69
6286.00,0.69
6284.00,0.69
6282.00,0.69
6280.00,0.69
6278.00,0.69
6276.00,0.69
6274.00,0.69
6272.00,0.69
6270.00,0.69
6268.00,0.69
6266.00,0.69
6264.00,0.70
6262.00,0.70
6260.00,0.70
6258.00,0.70
6256.00,0.70
6254.00,0.70
6252.00,0.70
6250.00,0.69
6248.00,0.69
6246.00,0.69
6244.00,0.69
6242.00,0.69
6240.00,0.69
6238.00,0.69
6236.00,0.69
6234.00,0.69
6232.00,0.70
6230.00,0.70
6228.00,0.70
6226.00,0.70
6224.00,0.70
6222.00,0.69
6220.00,0.69
6218.00,0.69
6216.00,0.69
6214.00,0.69
6212.00,0.69
6210.00,0.69
6208.00,0.69
6206.00,0.69
6204.00,0.69
6202.00,0.70
6200.00,0.70
6198.00,0.70
6196.00,0.70
6194.00,0.70
6192.00,0.70
6190.00,0.70
6188.00,0.70
6186.00,0.71
6184.00,0.71
6182.00,0.71
6180.00,0.71
6178.00,0.71
6176.00,0.70
6174.00,0.70
6172.00,0.70
6170.00,0.71
6168.00,0.71
6166.00,0.71
6164.00,0.71
6162.00,0.71
6160.00,0.71
6158.00,0.71
6156.00,0.71
6154.00,0.71
6152.00,0.71
6150.00,0.71
6148.00,0.71
6146.00,0.71
6144.00,0.71
6142.00,0.71
6140.00,0.71
6138.00,0.71
6136.00,0.71
6134.00,0.71
6132.00,0.71
6130.00,0.71
6128.00,0.71
6126.00,0.71
6124.00,0.71
6122.00,0.71
6120.00,0.71
6118.00,0.71
6116.00,0.71
6114.00,0.71
6112.00,0.71
6110.00,0.71
6108.00,0.71
6106.00,0.71
6104.00,0.71
6102.00,0.71
6100.00,0.71
6098.00,0.71
6096.00,0.71
6094.00,0.71
6092.00,0.72
6090.00,0.72
6088.00,0.72
6086.00,0.72
6084.00,0.71
6082.00,0.71
6080.00,0.71
6078.00,0.71
6076.00,0.71
6074.00,0.71
6072.00,0.71
6070.00,0.71
6068.00,0.71
6066.00,0.72
6064.00,0.72
6062.00,0.72
6060.00,0.72
6058.00,0.72
6056.00,0.72
6054.00,0.72
6052.00,0.72
6050.00,0.72
6048.00,0.72
6046.00,0.72
6044.00,0.72
6042.00,0.72
6040.00,0.72
6038.00,0.72
6036.00,0.72
6034.00,0.72
6032.00,0.72
6030.00,0.72
6028.00,0.72
6026.00,0.72
6024.00,0.72
6022.00,0.72
6020.00,0.72
6018.00,0.72
6016.00,0.72
6014.00,0.72
6012.00,0.72
6010.00,0.72
6008.00,0.72
6006.00,0.72
6004.00,0.72
6002.00,0.72
6000.00,0.72
5998.00,0.72
5996.00,0.72
5994.00,0.72
5992.00,0.72
5990.00,0.72
5988.00,0.72
5986.00,0.72
5984.00,0.72
5982.00,0.72
5980.00,0.72
5978.00,0.72
5976.00,0.71
5974.00,0.71
5972.00,0.71
5970.00,0.71
5968.00,0.71
5966.00,0.71
5964.00,0.71
5962.00,0.71
5960.00,0.71
5958.00,0.71
5956.00,0.71
5954.00,0.71
5952.00,0.70
5950.00,0.70
5948.00,0.70
5946.00,0.70
5944.00,0.70
5942.00,0.70
5940.00,0.70
5938.00,0.70
5936.00,0.70
5934.00,0.70
5932.00,0.70
5930.00,0.70
5928.00,0.70
5926.00,0.70
5924.00,0.70
5922.00,0.70
5920.00,0.70
5918.00,0.70
5916.00,0.70
5914.00,0.70
5912.00,0.70
5910.00,0.70
5908.00,0.70
5906.00,0.70
5904.00,0.70
5902.00,0.70
5900.00,0.70
5898.00,0.70
5896.00,0.70
5894.00,0.70
5892.00,0.70
5890.00,0.70
5888.00,0.70
5886.00,0.70
5884.00,0.70
5882.00,0.70
5880.00,0.70
5878.00,0.70
5876.00,0.70
5874.00,0.70
5872.00,0.70
5870.00,0.70
5868.00,0.70
5866.00,0.70
5864.00,0.70
5862.00,0.70
5860.00,0.71
5858.00,0.71
5856.00,0.71
5854.00,0.71
5852.00,0.71
5850.00,0.71
5848.00,0.71
5846.00,0.70
5844.00,0.70
5842.00,0.70
5840.00,0.70
5838.00,0.70
5836.00,0.70
5834.00,0.70
5832.00,0.70
5830.00,0.70
5828.00,0.70
5826.00,0.70
5824.00,0.70
5822.00,0.71
5820.00,0.71
5818.00,0.71
5816.00,0.71
5814.00,0.71
5812.00,0.71
5810.00,0.71
5808.00,0.71
5806.00,0.71
5804.00,0.71
5802.00,0.71
5800.00,0.71
5798.00,0.71
5796.00,0.71
5794.00,0.71
5792.00,0.70
5790.00,0.70
5788.00,0.70
5786.00,0.70
5784.00,0.70
5782.00,0.70
5780.00,0.70
5778.00,0.70
5776.00,0.70
5774.00,0.70
5772.00,0.70
5770.00,0.70
5768.00,0.70
5766.00,0.70
5764.00,0.70
5762.00,0.70
5760.00,0.70
5758.00,0.70
5756.00,0.70
5754.00,0.71
5752.00,0.71
5750.00,0.71
5748.00,0.71
5746.00,0.71
5744.00,0.71
5742.00,0.71
5740.00,0.71
5738.00,0.71
5736.00,0.71
5734.00,0.71
5732.00,0.71
5730.00,0.71
5728.00,0.71
5726.00,0.71
5724.00,0.71
5722.00,0.71
5720.00,0.71
5718.00,0.71
5716.00,0.71
5714.00,0.71
5712.00,0.71
5710.00,0.71
5708.00,0.71
5706.00,0.71
5704.00,0.71
5702.00,0.71
5700.00,0.71
5698.00,0.71
5696.00,0.71
5694.00,0.71
5692.00,0.71
5690.00,0.71
5688.00,0.71
5686.00,0.71
5684.00,0.71
5682.00,0.71
5680.00,0.71
5678.00,0.71
5676.00,0.71
5674.00,0.71
5672.00,0.71
5670.00,0.71
5668.00,0.71
5666.00,0.71
5664.00,0.71
5662.00,0.71
5660.00,0.71
5658.00,0.71
5656.00,0.71
5654.00,0.71
5652.00,0.72
5650.00,0.72
5648.00,0.72
5646.00,0.72
5644.00,0.72
5642.00,0.72
5640.00,0.72
5638.00,0.72
5636.00,0.72
5634.00,0.72
5632.00,0.72
5630.00,0.72
5628.00,0.72
5626.00,0.72
5624.00,0.72
5622.00,0.72
5620.00,0.72
5618.00,0.72
5616.00,0.72
5614.00,0.72
5612.00,0.72
5610.00,0.72
5608.00,0.72
5606.00,0.72
5604.00,0.72
5602.00,0.72
5600.00,0.72
5598.00,0.72
5596.00,0.72
5594.00,0.72
5592.00,0.72
5590.00,0.72
5588.00,0.72
5586.00,0.72
5584.00,0.72
5582.00,0.72
5580.00,0.72
5578.00,0.72
5576.00,0.72
5574.00,0.72
5572.00,0.72
5570.00,0.72
5568.00,0.72
5566.00,0.72
5564.00,0.72
5562.00,0.72
5560.00,0.72
5558.00,0.73
5556.00,0.73
5554.00,0.73
5552.00,0.73
5550.00,0.73
5548.00,0.73
5546.00,0.73
5544.00,0.73
5542.00,0.73
5540.00,0.73
5538.00,0.73
5536.00,0.73
5534.00,0.73
5532.00,0.73
5530.00,0.73
5528.00,0.73
5526.00,0.73
5524.00,0.73
5522.00,0.73
5520.00,0.73
5518.00,0.73
5516.00,0.73
5514.00,0.73
5512.00,0.73
5510.00,0.73
5508.00,0.73
5506.00,0.73
5504.00,0.73
5502.00,0.73
5500.00,0.73
5498.00,0.73
5496.00,0.73
5494.00,0.73
5492.00,0.73
5490.00,0.73
5488.00,0.73
5486.00,0.73
5484.00,0.73
5482.00,0.73
5480.00,0.73
5478.00,0.73
5476.00,0.73
5474.00,0.73
5472.00,0.73
5470.00,0.73
5468.00,0.73
5466.00,0.73
5464.00,0.73
5462.00,0.73
5460.00,0.73
5458.00,0.73
5456.00,0.73
5454.00,0.73
5452.00,0.73
5450.00,0.73
5448.00,0.73
5446.00,0.73
5444.00,0.73
5442.00,0.73
5440.00,0.73
5438.00,0.73
5436.00,0.73
5434.00,0.73
5432.00,0.73
5430.00,0.73
5428.00,0.73
5426.00,0.74
5424.00,0.74
5422.00,0.74
5420.00,0.74
5418.00,0.74
5416.00,0.73
5414.00,0.73
5412.00,0.73
5410.00,0.73
5408.00,0.73
5406.00,0.73
5404.00,0.73
5402.00,0.73
5400.00,0.73
5398.00,0.73
5396.00,0.73
5394.00,0.73
5392.00,0.73
5390.00,0.74
5388.00,0.74
5386.00,0.74
5384.00,0.74
5382.00,0.73
5380.00,0.73
5378.00,0.73
5376.00,0.73
5374.00,0.73
5372.00,0.73
5370.00,0.73
5368.00,0.73
5366.00,0.73
5364.00,0.73
5362.00,0.73
5360.00,0.73
5358.00,0.72
5356.00,0.72
5354.00,0.72
5352.00,0.72
5350.00,0.72
5348.00,0.72
5346.00,0.72
5344.00,0.71
5342.00,0.71
5340.00,0.71
5338.00,0.71
5336.00,0.71
5334.00,0.71
5332.00,0.70
5330.00,0.70
5328.00,0.70
5326.00,0.70
5324.00,0.70
5322.00,0.70
5320.00,0.69
5318.00,0.69
5316.00,0.69
5314.00,0.69
5312.00,0.68
5310.00,0.68
5308.00,0.68
5306.00,0.67
5304.00,0.67
5302.00,0.67
5300.00,0.67
5298.00,0.66
5296.00,0.66
5294.00,0.66
5292.00,0.66
5290.00,0.65
5288.00,0.65
5286.00,0.65
5284.00,0.65
5282.00,0.65
5280.00,0.65
5278.00,0.64
5276.00,0.64
5274.00,0.64
5272.00,0.64
5270.00,0.64
5268.00,0.64
5266.00,0.63
5264.00,0.63
5262.00,0.63
5260.00,0.63
5258.00,0.63
5256.00,0.62
5254.00,0.62
5252.00,0.62
5250.00,0.62
5248.00,0.62
5246.00,0.62
5244.00,0.62
5242.00,0.62
5240.00,0.62
5238.00,0.61
5236.00,0.61
5234.00,0.61
5232.00,0.61
5230.00,0.61
5228.00,0.61
5226.00,0.61
5224.00,0.61
5222.00,0.61
5220.00,0.60
5218.00,0.60
5216.00,0.60
5214.00,0.60
5212.00,0.60
5210.00,0.60
5208.00,0.60
5206.00,0.60
5204.00,0.60
5202.00,0.60
5200.00,0.60
5198.00,0.60
5196.00,0.60
5194.00,0.60
5192.00,0.60
5190.00,0.60
5188.00,0.60
5186.00,0.60
5184.00,0.60
5182.00,0.60
5180.00,0.60
5178.00,0.60
5176.00,0.60
5174.00,0.60
5172.00,0.60
5170.00,0.60
5168.00,0.60
5166.00,0.60
5164.00,0.60
5162.00,0.60
5160.00,0.60
5158.00,0.60
5156.00,0.60
5154.00,0.60
5152.00,0.60
5150.00,0.60
5148.00,0.60
5146.00,0.60
5144.00,0.60
5142.00,0.60
5140.00,0.60
5138.00,0.60
5136.00,0.60
5134.00,0.60
5132.00,0.61
5130.00,0.61
5128.00,0.61
5126.00,0.61
5124.00,0.61
5122.00,0.61
5120.00,0.61
5118.00,0.61
5116.00,0.61
5114.00,0.61
5112.00,0.62
5110.00,0.62
5108.00,0.62
5106.00,0.62
5104.00,0.62
5102.00,0.62
5100.00,0.62
5098.00,0.62
5096.00,0.62
5094.00,0.62
5092.00,0.62
5090.00,0.62
5088.00,0.62
5086.00,0.62
5084.00,0.62
5082.00,0.62
5080.00,0.62
5078.00,0.63
5076.00,0.63
5074.00,0.63
5072.00,0.63
5070.00,0.63
5068.00,0.63
5066.00,0.63
5064.00,0.63
5062.00,0.63
5060.00,0.63
5058.00,0.64
5056.00,0.64
5054.00,0.64
5052.00,0.64
5050.00,0.64
5048.00,0.64
5046.00,0.64
5044.00,0.64
5042.00,0.64
5040.00,0.64
5038.00,0.64
5036.00,0.64
5034.00,0.65
5032.00,0.65
5030.00,0.65
5028.00,0.65
5026.00,0.65
5024.00,0.65
5022.00,0.65
5020.00,0.65
5018.00,0.65
5016.00,0.65
5014.00,0.65
5012.00,0.66
5010.00,0.66
5008.00,0.66
5006.00,0.66
5004.00,0.66
5002.00,0.66
5000.00,0.66
4998.00,0.66
4996.00,0.66
4994.00,0.66
4992.00,0.66
4990.00,0.66
4988.00,0.66
4986.00,0.67
4984.00,0.67
4982.00,0.67
4980.00,0.67
4978.00,0.67
4976.00,0.67
4974.00,0.67
4972.00,0.67
4970.00,0.67
4968.00,0.67
4966.00,0.67
4964.00,0.67
4962.00,0.67
4960.00,0.67
4958.00,0.67
4956.00,0.67
4954.00,0.67
4952.00,0.67
4950.00,0.67
4948.00,0.67
4946.00,0.68
4944.00,0.68
4942.00,0.68
4940.00,0.68
4938.00,0.68
4936.00,0.68
4934.00,0.68
4932.00,0.68
4930.00,0.68
4928.00,0.68
4926.00,0.68
4924.00,0.68
4922.00,0.68
4920.00,0.68
4918.00,0.68
4916.00,0.68
4914.00,0.68
4912.00,0.68
4910.00,0.69
4908.00,0.69
4906.00,0.69
4904.00,0.69
4902.00,0.69
4900.00,0.69
4898.00,0.69
4896.00,0.69
4894.00,0.69
4892.00,0.69
4890.00,0.69
4888.00,0.69
4886.00,0.69
4884.00,0.69
4882.00,0.69
4880.00,0.69
4878.00,0.69
4876.00,0.69
4874.00,0.69
4872.00,0.69
4870.00,0.69
4868.00,0.69
4866.00,0.69
4864.00,0.69
4862.00,0.69
4860.00,0.69
4858.00,0.69
4856.00,0.69
4854.00,0.70
4852.00,0.70
4850.00,0.70
4848.00,0.70
4846.00,0.70
4844.00,0.70
4842.00,0.70
4840.00,0.70
4838.00,0.70
4836.00,0.70
4834.00,0.70
4832.00,0.70
4830.00,0.70
4828.00,0.70
4826.00,0.70
4824.00,0.70
4822.00,0.70
4820.00,0.70
4818.00,0.70
4816.00,0.70
4814.00,0.70
4812.00,0.70
4810.00,0.70
4808.00,0.70
4806.00,0.70
4804.00,0.70
4802.00,0.70
4800.00,0.70
4798.00,0.70
4796.00,0.70
4794.00,0.70
4792.00,0.70
4790.00,0.71
4788.00,0.71
4786.00,0.71
4784.00,0.71
4782.00,0.71
4780.00,0.71
4778.00,0.71
4776.00,0.71
4774.00,0.71
4772.00,0.71
4770.00,0.72
4768.00,0.72
4766.00,0.72
4764.00,0.72
4762.00,0.72
4760.00,0.72
4758.00,0.72
4756.00,0.72
4754.00,0.72
4752.00,0.72
4750.00,0.72
4748.00,0.72
4746.00,0.72
4744.00,0.72
4742.00,0.72
4740.00,0.72
4738.00,0.72
4736.00,0.72
4734.00,0.72
4732.00,0.72
4730.00,0.72
4728.00,0.72
4726.00,0.72
4724.00,0.72
4722.00,0.72
4720.00,0.72
4718.00,0.72
4716.00,0.72
4714.00,0.72
4712.00,0.72
4710.00,0.72
4708.00,0.72
4706.00,0.72
4704.00,0.72
4702.00,0.72
4700.00,0.72
4698.00,0.72
4696.00,0.72
4694.00,0.72
4692.00,0.72
4690.00,0.72
4688.00,0.72
4686.00,0.72
4684.00,0.72
4682.00,0.72
4680.00,0.72
4678.00,0.72
4676.00,0.72
4674.00,0.72
4672.00,0.72
4670.00,0.72
4668.00,0.72
4666.00,0.72
4664.00,0.72
4662.00,0.72
4660.00,0.72
4658.00,0.72
4656.00,0.73
4654.00,0.73
4652.00,0.73
4650.00,0.73
4648.00,0.73
4646.00,0.73
4644.00,0.73
4642.00,0.73
4640.00,0.73
4638.00,0.73
4636.00,0.73
4634.00,0.73
4632.00,0.73
4630.00,0.73
4628.00,0.73
4626.00,0.73
4624.00,0.73
4622.00,0.73
4620.00,0.73
4618.00,0.73
4616.00,0.73
4614.00,0.73
4612.00,0.73
4610.00,0.73
4608.00,0.73
4606.00,0.73
4604.00,0.73
4602.00,0.73
4600.00,0.73
4598.00,0.73
4596.00,0.73
4594.00,0.73
4592.00,0.73
4590.00,0.73
4588.00,0.73
4586.00,0.73
4584.00,0.73
4582.00,0.73
4580.00,0.73
4578.00,0.73
4576.00,0.73
4574.00,0.73
4572.00,0.73
4570.00,0.73
4568.00,0.73
4566.00,0.73
4564.00,0.73
4562.00,0.73
4560.00,0.73
4558.00,0.73
4556.00,0.73
4554.00,0.73
4552.00,0.73
4550.00,0.73
4548.00,0.73
4546.00,0.73
4544.00,0.73
4542.00,0.73
4540.00,0.73
4538.00,0.73
4536.00,0.73
4534.00,0.73
4532.00,0.73
4530.00,0.73
4528.00,0.73
4526.00,0.73
4524.00,0.73
4522.00,0.73
4520.00,0.73
4518.00,0.73
4516.00,0.73
4514.00,0.73
4512.00,0.73
4510.00,0.73
4508.00,0.73
4506.00,0.73
4504.00,0.73
4502.00,0.73
4500.00,0.73
4498.00,0.73
4496.00,0.73
4494.00,0.73
4492.00,0.73
4490.00,0.73
4488.00,0.73
4486.00,0.73
4484.00,0.73
4482.00,0.73
4480.00,0.73
4478.00,0.73
4476.00,0.73
4474.00,0.73
4472.00,0.73
4470.00,0.73
4468.00,0.73
4466.00,0.73
4464.00,0.73
4462.00,0.73
4460.00,0.73
4458.00,0.73
4456.00,0.73
4454.00,0.73
4452.00,0.72
4450.00,0.72
4448.00,0.72
4446.00,0.72
4444.00,0.72
4442.00,0.72
4440.00,0.72
4438.00,0.71
4436.00,0.71
4434.00,0.71
4432.00,0.71
4430.00,0.70
4428.00,0.70
4426.00,0.70
4424.00,0.70
4422.00,0.70
4420.00,0.70
4418.00,0.70
4416.00,0.69
4414.00,0.69
4412.00,0.69
4410.00,0.69
4408.00,0.69
4406.00,0.70
4404.00,0.70
4402.00,0.70
4400.00,0.70
4398.00,0.70
4396.00,0.70
4394.00,0.70
4392.00,0.70
4390.00,0.70
4388.00,0.70
4386.00,0.71
4384.00,0.71
4382.00,0.71
4380.00,0.71
4378.00,0.71
4376.00,0.71
4374.00,0.71
4372.00,0.71
4370.00,0.71
4368.00,0.71
4366.00,0.71
4364.00,0.71
4362.00,0.70
4360.00,0.70
4358.00,0.70
4356.00,0.70
4354.00,0.70
4352.00,0.70
4350.00,0.70
4348.00,0.70
4346.00,0.70
4344.00,0.70
4342.00,0.70
4340.00,0.70
4338.00,0.70
4336.00,0.70
4334.00,0.70
4332.00,0.70
4330.00,0.70
4328.00,0.70
4326.00,0.70
4324.00,0.71
4322.00,0.71
4320.00,0.71
4318.00,0.71
4316.00,0.71
4314.00,0.72
4312.00,0.72
4310.00,0.72
4308.00,0.72
4306.00,0.72
4304.00,0.72
4302.00,0.73
4300.00,0.73
4298.00,0.73
4296.00,0.73
4294.00,0.73
4292.00,0.73
4290.00,0.74
4288.00,0.74
4286.00,0.74
4284.00,0.74
4282.00,0.74
4280.00,0.74
4278.00,0.73
4276.00,0.73
4274.00,0.73
4272.00,0.73
4270.00,0.73
4268.00,0.73
4266.00,0.72
4264.00,0.72
4262.00,0.72
4260.00,0.72
4258.00,0.72
4256.00,0.72
4254.00,0.72
4252.00,0.72
4250.00,0.72
4248.00,0.72
4246.00,0.72
4244.00,0.72
4242.00,0.72
4240.00,0.72
4238.00,0.73
4236.00,0.73
4234.00,0.73
4232.00,0.73
4230.00,0.73
4228.00,0.73
4226.00,0.73
4224.00,0.73
4222.00,0.73
4220.00,0.73
4218.00,0.73
4216.00,0.73
4214.00,0.73
4212.00,0.73
4210.00,0.73
4208.00,0.74
4206.00,0.74
4204.00,0.73
4202.00,0.73
4200.00,0.73
4198.00,0.73
4196.00,0.73
4194.00,0.73
4192.00,0.73
4190.00,0.73
4188.00,0.73
4186.00,0.73
4184.00,0.73
4182.00,0.73
4180.00,0.73
4178.00,0.73
4176.00,0.73
4174.00,0.73
4172.00,0.73
4170.00,0.73
4168.00,0.73
4166.00,0.73
4164.00,0.72
4162.00,0.72
4160.00,0.72
4158.00,0.72
4156.00,0.72
4154.00,0.73
4152.00,0.73
4150.00,0.73
4148.00,0.73
4146.00,0.73
4144.00,0.74
4142.00,0.74
4140.00,0.74
4138.00,0.74
4136.00,0.74
4134.00,0.73
4132.00,0.73
4130.00,0.73
4128.00,0.73
4126.00,0.73
4124.00,0.73
4122.00,0.73
4120.00,0.73
4118.00,0.73
4116.00,0.73
4114.00,0.73
4112.00,0.73
4110.00,0.73
4108.00,0.73
4106.00,0.73
4104.00,0.73
4102.00,0.73
4100.00,0.72
4098.00,0.72
4096.00,0.72
4094.00,0.72
4092.00,0.72
4090.00,0.72
4088.00,0.72
4086.00,0.72
4084.00,0.72
4082.00,0.72
4080.00,0.72
4078.00,0.72
4076.00,0.72
4074.00,0.72
4072.00,0.72
4070.00,0.72
4068.00,0.72
4066.00,0.72
4064.00,0.72
4062.00,0.72
4060.00,0.72
4058.00,0.72
4056.00,0.72
4054.00,0.72
4052.00,0.72
4050.00,0.72
4048.00,0.72
4046.00,0.72
4044.00,0.72
4042.00,0.72
4040.00,0.72
4038.00,0.72
4036.00,0.72
4034.00,0.72
4032.00,0.72
4030.00,0.73
4028.00,0.72
4026.00,0.72
4024.00,0.72
4022.00,0.72
4020.00,0.72
4018.00,0.72
4016.00,0.72
4014.00,0.72
4012.00,0.73
4010.00,0.73
4008.00,0.73
4006.00,0.73
4004.00,0.73
4002.00,0.73
4000.00,0.74
