创建为新数据集,样品 1756 用户 Administrator 日期 星期三, 三月 15 2017
cm-1,%T
10000.00,0.72
9998.00,0.72
9996.00,0.73
9994.00,0.73
9992.00,0.74
9990.00,0.74
9988.00,0.74
9986.00,0.74
9984.00,0.74
9982.00,0.73
9980.00,0.73
9978.00,0.72
9976.00,0.72
9974.00,0.72
9972.00,0.72
9970.00,0.72
9968.00,0.72
9966.00,0.73
9964.00,0.73
9962.00,0.74
9960.00,0.74
9958.00,0.75
9956.00,0.76
9954.00,0.76
9952.00,0.77
9950.00,0.77
9948.00,0.77
9946.00,0.77
9944.00,0.77
9942.00,0.76
9940.00,0.76
9938.00,0.75
9936.00,0.74
9934.00,0.73
9932.00,0.73
9930.00,0.72
9928.00,0.72
9926.00,0.72
9924.00,0.72
9922.00,0.72
9920.00,0.72
9918.00,0.73
9916.00,0.73
9914.00,0.73
9912.00,0.73
9910.00,0.74
9908.00,0.74
9906.00,0.74
9904.00,0.74
9902.00,0.74
9900.00,0.73
9898.00,0.73
9896.00,0.73
9894.00,0.72
9892.00,0.72
9890.00,0.72
9888.00,0.71
9886.00,0.71
9884.00,0.71
9882.00,0.71
9880.00,0.71
9878.00,0.71
9876.00,0.71
9874.00,0.71
9872.00,0.72
9870.00,0.72
9868.00,0.72
9866.00,0.72
9864.00,0.72
9862.00,0.72
9860.00,0.72
9858.00,0.72
9856.00,0.72
9854.00,0.72
9852.00,0.72
9850.00,0.72
9848.00,0.72
9846.00,0.72
9844.00,0.72
9842.00,0.72
9840.00,0.72
9838.00,0.72
9836.00,0.71
9834.00,0.71
9832.00,0.71
9830.00,0.71
9828.00,0.71
9826.00,0.71
9824.00,0.72
9822.00,0.72
9820.00,0.72
9818.00,0.72
9816.00,0.72
9814.00,0.72
9812.00,0.72
9810.00,0.72
9808.00,0.72
9806.00,0.72
9804.00,0.72
9802.00,0.72
9800.00,0.73
9798.00,0.73
9796.00,0.74
9794.00,0.74
9792.00,0.74
9790.00,0.74
9788.00,0.74
9786.00,0.73
9784.00,0.73
9782.00,0.73
9780.00,0.72
9778.00,0.72
9776.00,0.71
9774.00,0.71
9772.00,0.70
9770.00,0.70
9768.00,0.70
9766.00,0.70
9764.00,0.71
9762.00,0.72
9760.00,0.72
9758.00,0.73
9756.00,0.73
9754.00,0.73
9752.00,0.73
9750.00,0.73
9748.00,0.72
9746.00,0.72
9744.00,0.71
9742.00,0.71
9740.00,0.71
9738.00,0.72
9736.00,0.72
9734.00,0.72
9732.00,0.73
9730.00,0.73
9728.00,0.74
9726.00,0.74
9724.00,0.74
9722.00,0.74
9720.00,0.74
9718.00,0.74
9716.00,0.74
9714.00,0.74
9712.00,0.73
9710.00,0.73
9708.00,0.72
9706.00,0.71
9704.00,0.71
9702.00,0.70
9700.00,0.70
9698.00,0.70
9696.00,0.70
9694.00,0.70
9692.00,0.70
9690.00,0.71
9688.00,0.71
9686.00,0.72
9684.00,0.73
9682.00,0.73
9680.00,0.73
9678.00,0.73
9676.00,0.73
9674.00,0.73
9672.00,0.72
9670.00,0.72
9668.00,0.71
9666.00,0.71
9664.00,0.71
9662.00,0.71
9660.00,0.71
9658.00,0.72
9656.00,0.72
9654.00,0.72
9652.00,0.73
9650.00,0.73
9648.00,0.73
9646.00,0.72
9644.00,0.72
9642.00,0.72
9640.00,0.72
9638.00,0.72
9636.00,0.72
9634.00,0.72
9632.00,0.72
9630.00,0.72
9628.00,0.72
9626.00,0.73
9624.00,0.73
9622.00,0.73
9620.00,0.74
9618.00,0.74
9616.00,0.74
9614.00,0.74
9612.00,0.74
9610.00,0.74
9608.00,0.73
9606.00,0.73
9604.00,0.73
9602.00,0.72
9600.00,0.72
9598.00,0.72
9596.00,0.72
9594.00,0.71
9592.00,0.71
9590.00,0.71
9588.00,0.72
9586.00,0.72
9584.00,0.72
9582.00,0.72
9580.00,0.72
9578.00,0.72
9576.00,0.72
9574.00,0.72
9572.00,0.72
9570.00,0.71
9568.00,0.71
9566.00,0.71
9564.00,0.70
9562.00,0.70
9560.00,0.70
9558.00,0.70
9556.00,0.70
9554.00,0.70
9552.00,0.70
9550.00,0.70
9548.00,0.70
9546.00,0.70
9544.00,0.70
9542.00,0.70
9540.00,0.71
9538.00,0.71
9536.00,0.71
9534.00,0.72
9532.00,0.72
9530.00,0.72
9528.00,0.71
9526.00,0.71
9524.00,0.70
9522.00,0.70
9520.00,0.70
9518.00,0.70
9516.00,0.70
9514.00,0.70
9512.00,0.71
9510.00,0.71
9508.00,0.72
9506.00,0.72
9504.00,0.72
9502.00,0.73
9500.00,0.73
9498.00,0.73
9496.00,0.73
9494.00,0.73
9492.00,0.72
9490.00,0.72
9488.00,0.72
9486.00,0.72
9484.00,0.72
9482.00,0.71
9480.00,0.71
9478.00,0.71
9476.00,0.70
9474.00,0.70
9472.00,0.70
9470.00,0.69
9468.00,0.69
9466.00,0.69
9464.00,0.70
9462.00,0.70
9460.00,0.70
9458.00,0.70
9456.00,0.71
9454.00,0.71
9452.00,0.71
9450.00,0.71
9448.00,0.71
9446.00,0.70
9444.00,0.70
9442.00,0.70
9440.00,0.71
9438.00,0.71
9436.00,0.71
9434.00,0.71
9432.00,0.71
9430.00,0.71
9428.00,0.71
9426.00,0.71
9424.00,0.71
9422.00,0.71
9420.00,0.71
9418.00,0.70
9416.00,0.70
9414.00,0.70
9412.00,0.70
9410.00,0.71
9408.00,0.71
9406.00,0.71
9404.00,0.71
9402.00,0.71
9400.00,0.71
9398.00,0.72
9396.00,0.72
9394.00,0.72
9392.00,0.72
9390.00,0.72
9388.00,0.72
9386.00,0.72
9384.00,0.72
9382.00,0.72
9380.00,0.72
9378.00,0.72
9376.00,0.71
9374.00,0.71
9372.00,0.71
9370.00,0.71
9368.00,0.71
9366.00,0.70
9364.00,0.70
9362.00,0.70
9360.00,0.70
9358.00,0.70
9356.00,0.70
9354.00,0.71
9352.00,0.71
9350.00,0.71
9348.00,0.71
9346.00,0.72
9344.00,0.72
9342.00,0.72
9340.00,0.72
9338.00,0.72
9336.00,0.72
9334.00,0.72
9332.00,0.71
9330.00,0.71
9328.00,0.70
9326.00,0.70
9324.00,0.70
9322.00,0.70
9320.00,0.70
9318.00,0.70
9316.00,0.71
9314.00,0.71
9312.00,0.72
9310.00,0.73
9308.00,0.73
9306.00,0.73
9304.00,0.73
9302.00,0.73
9300.00,0.72
9298.00,0.71
9296.00,0.71
9294.00,0.70
9292.00,0.70
9290.00,0.69
9288.00,0.69
9286.00,0.69
9284.00,0.70
9282.00,0.70
9280.00,0.71
9278.00,0.71
9276.00,0.71
9274.00,0.72
9272.00,0.72
9270.00,0.72
9268.00,0.71
9266.00,0.71
9264.00,0.71
9262.00,0.71
9260.00,0.70
9258.00,0.70
9256.00,0.70
9254.00,0.71
9252.00,0.71
9250.00,0.71
9248.00,0.71
9246.00,0.71
9244.00,0.71
9242.00,0.71
9240.00,0.71
9238.00,0.72
9236.00,0.72
9234.00,0.72
9232.00,0.73
9230.00,0.73
9228.00,0.74
9226.00,0.74
9224.00,0.74
9222.00,0.74
9220.00,0.73
9218.00,0.73
9216.00,0.73
9214.00,0.73
9212.00,0.73
9210.00,0.73
9208.00,0.72
9206.00,0.72
9204.00,0.72
9202.00,0.72
9200.00,0.71
9198.00,0.71
9196.00,0.71
9194.00,0.71
9192.00,0.71
9190.00,0.71
9188.00,0.71
9186.00,0.72
9184.00,0.72
9182.00,0.72
9180.00,0.72
9178.00,0.72
9176.00,0.72
9174.00,0.72
9172.00,0.72
9170.00,0.72
9168.00,0.72
9166.00,0.72
9164.00,0.72
9162.00,0.72
9160.00,0.72
9158.00,0.72
9156.00,0.72
9154.00,0.72
9152.00,0.72
9150.00,0.71
9148.00,0.71
9146.00,0.71
9144.00,0.70
9142.00,0.70
9140.00,0.70
9138.00,0.71
9136.00,0.71
9134.00,0.71
9132.00,0.72
9130.00,0.72
9128.00,0.72
9126.00,0.72
9124.00,0.72
9122.00,0.72
9120.00,0.71
9118.00,0.71
9116.00,0.71
9114.00,0.72
9112.00,0.72
9110.00,0.72
9108.00,0.72
9106.00,0.72
9104.00,0.71
9102.00,0.71
9100.00,0.71
9098.00,0.71
9096.00,0.70
9094.00,0.70
9092.00,0.70
9090.00,0.70
9088.00,0.70
9086.00,0.71
9084.00,0.71
9082.00,0.72
9080.00,0.72
9078.00,0.72
9076.00,0.73
9074.00,0.73
9072.00,0.73
9070.00,0.73
9068.00,0.73
9066.00,0.74
9064.00,0.74
9062.00,0.74
9060.00,0.74
9058.00,0.73
9056.00,0.73
9054.00,0.73
9052.00,0.72
9050.00,0.72
9048.00,0.72
9046.00,0.71
9044.00,0.71
9042.00,0.71
9040.00,0.70
9038.00,0.70
9036.00,0.70
9034.00,0.70
9032.00,0.70
9030.00,0.70
9028.00,0.70
9026.00,0.70
9024.00,0.70
9022.00,0.71
9020.00,0.71
9018.00,0.71
9016.00,0.72
9014.00,0.72
9012.00,0.72
9010.00,0.73
9008.00,0.73
9006.00,0.72
9004.00,0.72
9002.00,0.72
9000.00,0.72
8998.00,0.72
8996.00,0.71
8994.00,0.72
8992.00,0.72
8990.00,0.72
8988.00,0.72
8986.00,0.72
8984.00,0.73
8982.00,0.73
8980.00,0.73
8978.00,0.73
8976.00,0.73
8974.00,0.73
8972.00,0.73
8970.00,0.73
8968.00,0.73
8966.00,0.73
8964.00,0.73
8962.00,0.72
8960.00,0.72
8958.00,0.72
8956.00,0.71
8954.00,0.71
8952.00,0.71
8950.00,0.71
8948.00,0.71
8946.00,0.71
8944.00,0.71
8942.00,0.71
8940.00,0.71
8938.00,0.71
8936.00,0.71
8934.00,0.71
8932.00,0.72
8930.00,0.72
8928.00,0.72
8926.00,0.71
8924.00,0.71
8922.00,0.71
8920.00,0.71
8918.00,0.71
8916.00,0.70
8914.00,0.70
8912.00,0.71
8910.00,0.71
8908.00,0.71
8906.00,0.71
8904.00,0.72
8902.00,0.72
8900.00,0.72
8898.00,0.72
8896.00,0.72
8894.00,0.72
8892.00,0.72
8890.00,0.71
8888.00,0.71
8886.00,0.71
8884.00,0.70
8882.00,0.70
8880.00,0.70
8878.00,0.70
8876.00,0.70
8874.00,0.70
8872.00,0.70
8870.00,0.71
8868.00,0.71
8866.00,0.71
8864.00,0.71
8862.00,0.70
8860.00,0.70
8858.00,0.70
8856.00,0.70
8854.00,0.70
8852.00,0.70
8850.00,0.70
8848.00,0.71
8846.00,0.71
8844.00,0.71
8842.00,0.71
8840.00,0.71
8838.00,0.71
8836.00,0.71
8834.00,0.71
8832.00,0.71
8830.00,0.71
8828.00,0.71
8826.00,0.71
8824.00,0.71
8822.00,0.71
8820.00,0.71
8818.00,0.72
8816.00,0.72
8814.00,0.72
8812.00,0.73
8810.00,0.73
8808.00,0.73
8806.00,0.73
8804.00,0.73
8802.00,0.73
8800.00,0.72
8798.00,0.72
8796.00,0.71
8794.00,0.71
8792.00,0.70
8790.00,0.70
8788.00,0.70
8786.00,0.69
8784.00,0.69
8782.00,0.70
8780.00,0.70
8778.00,0.70
8776.00,0.71
8774.00,0.71
8772.00,0.72
8770.00,0.72
8768.00,0.72
8766.00,0.72
8764.00,0.72
8762.00,0.72
8760.00,0.71
8758.00,0.71
8756.00,0.71
8754.00,0.71
8752.00,0.71
8750.00,0.71
8748.00,0.71
8746.00,0.71
8744.00,0.72
8742.00,0.72
8740.00,0.72
8738.00,0.71
8736.00,0.71
8734.00,0.71
8732.00,0.71
8730.00,0.71
8728.00,0.71
8726.00,0.71
8724.00,0.71
8722.00,0.71
8720.00,0.71
8718.00,0.71
8716.00,0.72
8714.00,0.72
8712.00,0.72
8710.00,0.72
8708.00,0.72
8706.00,0.72
8704.00,0.72
8702.00,0.71
8700.00,0.71
8698.00,0.71
8696.00,0.71
8694.00,0.71
8692.00,0.71
8690.00,0.70
8688.00,0.70
8686.00,0.70
8684.00,0.70
8682.00,0.70
8680.00,0.70
8678.00,0.70
8676.00,0.70
8674.00,0.70
8672.00,0.71
8670.00,0.71
8668.00,0.71
8666.00,0.72
8664.00,0.72
8662.00,0.72
8660.00,0.72
8658.00,0.72
8656.00,0.71
8654.00,0.71
8652.00,0.71
8650.00,0.71
8648.00,0.71
8646.00,0.71
8644.00,0.71
8642.00,0.71
8640.00,0.71
8638.00,0.71
8636.00,0.71
8634.00,0.71
8632.00,0.71
8630.00,0.72
8628.00,0.72
8626.00,0.71
8624.00,0.71
8622.00,0.71
8620.00,0.71
8618.00,0.71
8616.00,0.71
8614.00,0.70
8612.00,0.70
8610.00,0.70
8608.00,0.71
8606.00,0.71
8604.00,0.71
8602.00,0.71
8600.00,0.71
8598.00,0.71
8596.00,0.71
8594.00,0.71
8592.00,0.71
8590.00,0.71
8588.00,0.71
8586.00,0.71
8584.00,0.71
8582.00,0.70
8580.00,0.70
8578.00,0.70
8576.00,0.70
8574.00,0.70
8572.00,0.69
8570.00,0.69
8568.00,0.69
8566.00,0.69
8564.00,0.69
8562.00,0.69
8560.00,0.69
8558.00,0.70
8556.00,0.70
8554.00,0.70
8552.00,0.70
8550.00,0.71
8548.00,0.71
8546.00,0.71
8544.00,0.71
8542.00,0.71
8540.00,0.71
8538.00,0.71
8536.00,0.70
8534.00,0.70
8532.00,0.70
8530.00,0.70
8528.00,0.71
8526.00,0.71
8524.00,0.71
8522.00,0.71
8520.00,0.71
8518.00,0.72
8516.00,0.71
8514.00,0.71
8512.00,0.71
8510.00,0.71
8508.00,0.71
8506.00,0.71
8504.00,0.71
8502.00,0.71
8500.00,0.71
8498.00,0.71
8496.00,0.71
8494.00,0.72
8492.00,0.72
8490.00,0.72
8488.00,0.73
8486.00,0.73
8484.00,0.73
8482.00,0.73
8480.00,0.72
8478.00,0.72
8476.00,0.72
8474.00,0.71
8472.00,0.71
8470.00,0.70
8468.00,0.70
8466.00,0.70
8464.00,0.69
8462.00,0.69
8460.00,0.69
8458.00,0.69
8456.00,0.69
8454.00,0.69
8452.00,0.69
8450.00,0.69
8448.00,0.69
8446.00,0.70
8444.00,0.70
8442.00,0.70
8440.00,0.70
8438.00,0.70
8436.00,0.71
8434.00,0.71
8432.00,0.71
8430.00,0.71
8428.00,0.71
8426.00,0.71
8424.00,0.71
8422.00,0.71
8420.00,0.71
8418.00,0.71
8416.00,0.71
8414.00,0.71
8412.00,0.71
8410.00,0.71
8408.00,0.71
8406.00,0.71
8404.00,0.71
8402.00,0.71
8400.00,0.70
8398.00,0.70
8396.00,0.70
8394.00,0.70
8392.00,0.70
8390.00,0.70
8388.00,0.70
8386.00,0.71
8384.00,0.71
8382.00,0.71
8380.00,0.71
8378.00,0.72
8376.00,0.72
8374.00,0.72
8372.00,0.72
8370.00,0.72
8368.00,0.72
8366.00,0.72
8364.00,0.71
8362.00,0.71
8360.00,0.70
8358.00,0.70
8356.00,0.70
8354.00,0.70
8352.00,0.70
8350.00,0.70
8348.00,0.71
8346.00,0.71
8344.00,0.71
8342.00,0.71
8340.00,0.71
8338.00,0.70
8336.00,0.70
8334.00,0.70
8332.00,0.70
8330.00,0.70
8328.00,0.70
8326.00,0.71
8324.00,0.71
8322.00,0.71
8320.00,0.70
8318.00,0.70
8316.00,0.70
8314.00,0.70
8312.00,0.70
8310.00,0.70
8308.00,0.71
8306.00,0.71
8304.00,0.71
8302.00,0.71
8300.00,0.71
8298.00,0.71
8296.00,0.71
8294.00,0.70
8292.00,0.70
8290.00,0.70
8288.00,0.70
8286.00,0.70
8284.00,0.70
8282.00,0.70
8280.00,0.71
8278.00,0.71
8276.00,0.71
8274.00,0.71
8272.00,0.71
8270.00,0.71
8268.00,0.71
8266.00,0.70
8264.00,0.70
8262.00,0.70
8260.00,0.70
8258.00,0.70
8256.00,0.70
8254.00,0.70
8252.00,0.71
8250.00,0.71
8248.00,0.71
8246.00,0.70
8244.00,0.70
8242.00,0.70
8240.00,0.70
8238.00,0.70
8236.00,0.71
8234.00,0.71
8232.00,0.71
8230.00,0.71
8228.00,0.72
8226.00,0.72
8224.00,0.71
8222.00,0.71
8220.00,0.71
8218.00,0.71
8216.00,0.71
8214.00,0.71
8212.00,0.71
8210.00,0.71
8208.00,0.71
8206.00,0.71
8204.00,0.71
8202.00,0.71
8200.00,0.71
8198.00,0.71
8196.00,0.71
8194.00,0.70
8192.00,0.70
8190.00,0.70
8188.00,0.70
8186.00,0.70
8184.00,0.70
8182.00,0.70
8180.00,0.70
8178.00,0.70
8176.00,0.70
8174.00,0.70
8172.00,0.70
8170.00,0.70
8168.00,0.70
8166.00,0.70
8164.00,0.70
8162.00,0.70
8160.00,0.70
8158.00,0.70
8156.00,0.70
8154.00,0.70
8152.00,0.70
8150.00,0.70
8148.00,0.70
8146.00,0.70
8144.00,0.71
8142.00,0.71
8140.00,0.71
8138.00,0.71
8136.00,0.72
8134.00,0.72
8132.00,0.72
8130.00,0.72
8128.00,0.72
8126.00,0.72
8124.00,0.72
8122.00,0.72
8120.00,0.72
8118.00,0.71
8116.00,0.71
8114.00,0.71
8112.00,0.71
8110.00,0.71
8108.00,0.71
8106.00,0.72
8104.00,0.72
8102.00,0.72
8100.00,0.72
8098.00,0.72
8096.00,0.72
8094.00,0.72
8092.00,0.72
8090.00,0.72
8088.00,0.72
8086.00,0.72
8084.00,0.72
8082.00,0.72
8080.00,0.72
8078.00,0.72
8076.00,0.72
8074.00,0.73
8072.00,0.73
8070.00,0.73
8068.00,0.72
8066.00,0.72
8064.00,0.72
8062.00,0.72
8060.00,0.72
8058.00,0.72
8056.00,0.71
8054.00,0.71
8052.00,0.72
8050.00,0.72
8048.00,0.72
8046.00,0.72
8044.00,0.72
8042.00,0.72
8040.00,0.71
8038.00,0.71
8036.00,0.71
8034.00,0.71
8032.00,0.71
8030.00,0.71
8028.00,0.71
8026.00,0.71
8024.00,0.71
8022.00,0.71
8020.00,0.71
8018.00,0.71
8016.00,0.71
8014.00,0.71
8012.00,0.71
8010.00,0.71
8008.00,0.71
8006.00,0.71
8004.00,0.71
8002.00,0.71
8000.00,0.71
7998.00,0.71
7996.00,0.71
7994.00,0.71
7992.00,0.71
7990.00,0.71
7988.00,0.72
7986.00,0.72
7984.00,0.72
7982.00,0.72
7980.00,0.72
7978.00,0.71
7976.00,0.71
7974.00,0.71
7972.00,0.71
7970.00,0.71
7968.00,0.71
7966.00,0.71
7964.00,0.71
7962.00,0.71
7960.00,0.72
7958.00,0.72
7956.00,0.72
7954.00,0.72
7952.00,0.72
7950.00,0.72
7948.00,0.72
7946.00,0.72
7944.00,0.72
7942.00,0.72
7940.00,0.72
7938.00,0.72
7936.00,0.72
7934.00,0.71
7932.00,0.71
7930.00,0.71
7928.00,0.71
7926.00,0.71
7924.00,0.72
7922.00,0.72
7920.00,0.72
7918.00,0.72
7916.00,0.72
7914.00,0.72
7912.00,0.72
7910.00,0.72
7908.00,0.73
7906.00,0.73
7904.00,0.73
7902.00,0.73
7900.00,0.73
7898.00,0.73
7896.00,0.73
7894.00,0.73
7892.00,0.73
7890.00,0.72
7888.00,0.72
7886.00,0.72
7884.00,0.72
7882.00,0.71
7880.00,0.71
7878.00,0.71
7876.00,0.71
7874.00,0.71
7872.00,0.71
7870.00,0.71
7868.00,0.71
7866.00,0.71
7864.00,0.72
7862.00,0.72
7860.00,0.72
7858.00,0.72
7856.00,0.71
7854.00,0.71
7852.00,0.71
7850.00,0.71
7848.00,0.71
7846.00,0.70
7844.00,0.70
7842.00,0.70
7840.00,0.70
7838.00,0.71
7836.00,0.71
7834.00,0.71
7832.00,0.71
7830.00,0.71
7828.00,0.72
7826.00,0.72
7824.00,0.72
7822.00,0.72
7820.00,0.72
7818.00,0.72
7816.00,0.72
7814.00,0.72
7812.00,0.72
7810.00,0.72
7808.00,0.72
7806.00,0.72
7804.00,0.72
7802.00,0.71
7800.00,0.71
7798.00,0.71
7796.00,0.71
7794.00,0.71
7792.00,0.71
7790.00,0.71
7788.00,0.71
7786.00,0.71
7784.00,0.72
7782.00,0.72
7780.00,0.72
7778.00,0.72
7776.00,0.72
7774.00,0.72
7772.00,0.72
7770.00,0.72
7768.00,0.72
7766.00,0.72
7764.00,0.72
7762.00,0.72
7760.00,0.72
7758.00,0.72
7756.00,0.72
7754.00,0.72
7752.00,0.71
7750.00,0.71
7748.00,0.71
7746.00,0.71
7744.00,0.71
7742.00,0.71
7740.00,0.71
7738.00,0.72
7736.00,0.72
7734.00,0.72
7732.00,0.72
7730.00,0.72
7728.00,0.72
7726.00,0.72
7724.00,0.72
7722.00,0.72
7720.00,0.72
7718.00,0.72
7716.00,0.72
7714.00,0.72
7712.00,0.71
7710.00,0.71
7708.00,0.71
7706.00,0.71
7704.00,0.72
7702.00,0.72
7700.00,0.72
7698.00,0.72
7696.00,0.72
7694.00,0.72
7692.00,0.72
7690.00,0.72
7688.00,0.72
7686.00,0.72
7684.00,0.72
7682.00,0.72
7680.00,0.73
7678.00,0.73
7676.00,0.73
7674.00,0.73
7672.00,0.73
7670.00,0.73
7668.00,0.73
7666.00,0.73
7664.00,0.73
7662.00,0.72
7660.00,0.72
7658.00,0.72
7656.00,0.72
7654.00,0.72
7652.00,0.72
7650.00,0.72
7648.00,0.72
7646.00,0.72
7644.00,0.72
7642.00,0.72
7640.00,0.72
7638.00,0.72
7636.00,0.72
7634.00,0.72
7632.00,0.72
7630.00,0.72
7628.00,0.72
7626.00,0.72
7624.00,0.72
7622.00,0.72
7620.00,0.72
7618.00,0.72
7616.00,0.72
7614.00,0.72
7612.00,0.72
7610.00,0.72
7608.00,0.72
7606.00,0.72
7604.00,0.72
7602.00,0.72
7600.00,0.72
7598.00,0.72
7596.00,0.72
7594.00,0.72
7592.00,0.72
7590.00,0.72
7588.00,0.72
7586.00,0.72
7584.00,0.72
7582.00,0.72
7580.00,0.72
7578.00,0.72
7576.00,0.72
7574.00,0.72
7572.00,0.72
7570.00,0.72
7568.00,0.72
7566.00,0.72
7564.00,0.72
7562.00,0.72
7560.00,0.72
7558.00,0.72
7556.00,0.72
7554.00,0.72
7552.00,0.72
7550.00,0.72
7548.00,0.72
7546.00,0.72
7544.00,0.72
7542.00,0.72
7540.00,0.72
7538.00,0.72
7536.00,0.72
7534.00,0.71
7532.00,0.71
7530.00,0.71
7528.00,0.71
7526.00,0.71
7524.00,0.72
7522.00,0.72
7520.00,0.72
7518.00,0.72
7516.00,0.72
7514.00,0.72
7512.00,0.72
7510.00,0.72
7508.00,0.71
7506.00,0.71
7504.00,0.71
7502.00,0.71
7500.00,0.71
7498.00,0.71
7496.00,0.72
7494.00,0.72
7492.00,0.72
7490.00,0.72
7488.00,0.72
7486.00,0.72
7484.00,0.72
7482.00,0.72
7480.00,0.72
7478.00,0.72
7476.00,0.72
7474.00,0.72
7472.00,0.72
7470.00,0.72
7468.00,0.71
7466.00,0.71
7464.00,0.72
7462.00,0.72
7460.00,0.72
7458.00,0.72
7456.00,0.72
7454.00,0.72
7452.00,0.72
7450.00,0.72
7448.00,0.72
7446.00,0.72
7444.00,0.72
7442.00,0.72
7440.00,0.72
7438.00,0.72
7436.00,0.72
7434.00,0.72
7432.00,0.72
7430.00,0.72
7428.00,0.72
7426.00,0.72
7424.00,0.71
7422.00,0.71
7420.00,0.71
7418.00,0.71
7416.00,0.71
7414.00,0.71
7412.00,0.71
7410.00,0.71
7408.00,0.71
7406.00,0.71
7404.00,0.71
7402.00,0.71
7400.00,0.71
7398.00,0.71
7396.00,0.72
7394.00,0.72
7392.00,0.72
7390.00,0.72
7388.00,0.72
7386.00,0.72
7384.00,0.72
7382.00,0.72
7380.00,0.71
7378.00,0.71
7376.00,0.71
7374.00,0.71
7372.00,0.71
7370.00,0.71
7368.00,0.71
7366.00,0.71
7364.00,0.71
7362.00,0.71
7360.00,0.71
7358.00,0.70
7356.00,0.70
7354.00,0.70
7352.00,0.71
7350.00,0.71
7348.00,0.71
7346.00,0.71
7344.00,0.71
7342.00,0.71
7340.00,0.71
7338.00,0.71
7336.00,0.71
7334.00,0.71
7332.00,0.71
7330.00,0.71
7328.00,0.71
7326.00,0.71
7324.00,0.72
7322.00,0.72
7320.00,0.72
7318.00,0.72
7316.00,0.72
7314.00,0.72
7312.00,0.72
7310.00,0.72
7308.00,0.72
7306.00,0.72
7304.00,0.72
7302.00,0.71
7300.00,0.71
7298.00,0.71
7296.00,0.71
7294.00,0.71
7292.00,0.71
7290.00,0.71
7288.00,0.71
7286.00,0.71
7284.00,0.71
7282.00,0.71
7280.00,0.71
7278.00,0.72
7276.00,0.72
7274.00,0.72
7272.00,0.72
7270.00,0.72
7268.00,0.72
7266.00,0.72
7264.00,0.71
7262.00,0.71
7260.00,0.71
7258.00,0.71
7256.00,0.70
7254.00,0.70
7252.00,0.70
7250.00,0.70
7248.00,0.70
7246.00,0.70
7244.00,0.70
7242.00,0.70
7240.00,0.70
7238.00,0.70
7236.00,0.70
7234.00,0.69
7232.00,0.69
7230.00,0.69
7228.00,0.69
7226.00,0.69
7224.00,0.69
7222.00,0.70
7220.00,0.70
7218.00,0.70
7216.00,0.70
7214.00,0.70
7212.00,0.70
7210.00,0.70
7208.00,0.70
7206.00,0.70
7204.00,0.69
7202.00,0.69
7200.00,0.69
7198.00,0.69
7196.00,0.69
7194.00,0.69
7192.00,0.69
7190.00,0.69
7188.00,0.69
7186.00,0.69
7184.00,0.69
7182.00,0.69
7180.00,0.69
7178.00,0.69
7176.00,0.69
7174.00,0.69
7172.00,0.68
7170.00,0.68
7168.00,0.68
7166.00,0.68
7164.00,0.68
7162.00,0.68
7160.00,0.69
7158.00,0.69
7156.00,0.69
7154.00,0.69
7152.00,0.69
7150.00,0.69
7148.00,0.69
7146.00,0.69
7144.00,0.69
7142.00,0.69
7140.00,0.68
7138.00,0.68
7136.00,0.68
7134.00,0.68
7132.00,0.68
7130.00,0.68
7128.00,0.68
7126.00,0.68
7124.00,0.68
7122.00,0.68
7120.00,0.68
7118.00,0.68
7116.00,0.68
7114.00,0.68
7112.00,0.68
7110.00,0.68
7108.00,0.68
7106.00,0.68
7104.00,0.68
7102.00,0.68
7100.00,0.68
7098.00,0.68
7096.00,0.68
7094.00,0.68
7092.00,0.68
7090.00,0.68
7088.00,0.68
7086.00,0.68
7084.00,0.68
7082.00,0.68
7080.00,0.67
7078.00,0.67
7076.00,0.67
7074.00,0.67
7072.00,0.67
7070.00,0.67
7068.00,0.67
7066.00,0.67
7064.00,0.67
7062.00,0.67
7060.00,0.67
7058.00,0.67
7056.00,0.67
7054.00,0.67
7052.00,0.67
7050.00,0.67
7048.00,0.67
7046.00,0.67
7044.00,0.67
7042.00,0.67
7040.00,0.67
7038.00,0.67
7036.00,0.67
7034.00,0.67
7032.00,0.67
7030.00,0.67
7028.00,0.67
7026.00,0.67
7024.00,0.67
7022.00,0.67
7020.00,0.67
7018.00,0.67
7016.00,0.67
7014.00,0.67
7012.00,0.67
7010.00,0.67
7008.00,0.66
7006.00,0.67
7004.00,0.67
7002.00,0.67
7000.00,0.67
6998.00,0.67
6996.00,0.67
6994.00,0.66
6992.00,0.66
6990.00,0.66
6988.00,0.66
6986.00,0.66
6984.00,0.66
6982.00,0.66
6980.00,0.66
6978.00,0.66
6976.00,0.66
6974.00,0.66
6972.00,0.66
6970.00,0.67
6968.00,0.67
6966.00,0.67
6964.00,0.67
6962.00,0.67
6960.00,0.67
6958.00,0.67
6956.00,0.66
6954.00,0.66
6952.00,0.66
6950.00,0.66
6948.00,0.66
6946.00,0.66
6944.00,0.66
6942.00,0.66
6940.00,0.66
6938.00,0.66
6936.00,0.66
6934.00,0.66
6932.00,0.66
6930.00,0.66
6928.00,0.66
6926.00,0.66
6924.00,0.66
6922.00,0.66
6920.00,0.66
6918.00,0.66
6916.00,0.66
6914.00,0.66
6912.00,0.66
6910.00,0.66
6908.00,0.66
6906.00,0.66
6904.00,0.66
6902.00,0.66
6900.00,0.66
6898.00,0.66
6896.00,0.66
6894.00,0.66
6892.00,0.66
6890.00,0.66
6888.00,0.66
6886.00,0.67
6884.00,0.67
6882.00,0.67
6880.00,0.67
6878.00,0.67
6876.00,0.66
6874.00,0.66
6872.00,0.66
6870.00,0.66
6868.00,0.66
6866.00,0.66
6864.00,0.66
6862.00,0.66
6860.00,0.66
6858.00,0.66
6856.00,0.67
6854.00,0.67
6852.00,0.67
6850.00,0.67
6848.00,0.67
6846.00,0.67
6844.00,0.67
6842.00,0.67
6840.00,0.67
6838.00,0.67
6836.00,0.67
6834.00,0.67
6832.00,0.66
6830.00,0.66
6828.00,0.66
6826.00,0.66
6824.00,0.66
6822.00,0.66
6820.00,0.66
6818.00,0.66
6816.00,0.67
6814.00,0.67
6812.00,0.67
6810.00,0.67
6808.00,0.67
6806.00,0.66
6804.00,0.66
6802.00,0.66
6800.00,0.66
6798.00,0.66
6796.00,0.66
6794.00,0.66
6792.00,0.66
6790.00,0.66
6788.00,0.66
6786.00,0.66
6784.00,0.67
6782.00,0.67
6780.00,0.67
6778.00,0.67
6776.00,0.67
6774.00,0.67
6772.00,0.67
6770.00,0.67
6768.00,0.67
6766.00,0.67
6764.00,0.67
6762.00,0.67
6760.00,0.67
6758.00,0.67
6756.00,0.67
6754.00,0.67
6752.00,0.67
6750.00,0.67
6748.00,0.67
6746.00,0.67
6744.00,0.67
6742.00,0.67
6740.00,0.67
6738.00,0.67
6736.00,0.67
6734.00,0.67
6732.00,0.67
6730.00,0.67
6728.00,0.67
6726.00,0.67
6724.00,0.67
6722.00,0.67
6720.00,0.67
6718.00,0.67
6716.00,0.67
6714.00,0.67
6712.00,0.67
6710.00,0.68
6708.00,0.68
6706.00,0.68
6704.00,0.68
6702.00,0.68
6700.00,0.68
6698.00,0.68
6696.00,0.68
6694.00,0.68
6692.00,0.68
6690.00,0.68
6688.00,0.68
6686.00,0.68
6684.00,0.68
6682.00,0.68
6680.00,0.68
6678.00,0.68
6676.00,0.68
6674.00,0.68
6672.00,0.68
6670.00,0.68
6668.00,0.68
6666.00,0.68
6664.00,0.68
6662.00,0.68
6660.00,0.68
6658.00,0.68
6656.00,0.68
6654.00,0.68
6652.00,0.68
6650.00,0.68
6648.00,0.68
6646.00,0.68
6644.00,0.68
6642.00,0.68
6640.00,0.68
6638.00,0.68
6636.00,0.68
6634.00,0.68
6632.00,0.68
6630.00,0.68
6628.00,0.68
6626.00,0.68
6624.00,0.68
6622.00,0.68
6620.00,0.68
6618.00,0.68
6616.00,0.68
6614.00,0.68
6612.00,0.68
6610.00,0.68
6608.00,0.68
6606.00,0.68
6604.00,0.68
6602.00,0.68
6600.00,0.68
6598.00,0.68
6596.00,0.68
6594.00,0.68
6592.00,0.69
6590.00,0.69
6588.00,0.69
6586.00,0.69
6584.00,0.69
6582.00,0.69
6580.00,0.69
6578.00,0.69
6576.00,0.69
6574.00,0.69
6572.00,0.69
6570.00,0.69
6568.00,0.69
6566.00,0.69
6564.00,0.69
6562.00,0.69
6560.00,0.69
6558.00,0.69
6556.00,0.69
6554.00,0.69
6552.00,0.69
6550.00,0.69
6548.00,0.69
6546.00,0.69
6544.00,0.69
6542.00,0.69
6540.00,0.69
6538.00,0.69
6536.00,0.69
6534.00,0.69
6532.00,0.69
6530.00,0.69
6528.00,0.69
6526.00,0.69
6524.00,0.69
6522.00,0.69
6520.00,0.69
6518.00,0.69
6516.00,0.69
6514.00,0.69
6512.00,0.69
6510.00,0.69
6508.00,0.69
6506.00,0.69
6504.00,0.69
6502.00,0.69
6500.00,0.69
6498.00,0.69
6496.00,0.69
6494.00,0.69
6492.00,0.69
6490.00,0.69
6488.00,0.69
6486.00,0.69
6484.00,0.69
6482.00,0.69
6480.00,0.69
6478.00,0.69
6476.00,0.69
6474.00,0.69
6472.00,0.69
6470.00,0.69
6468.00,0.69
6466.00,0.69
6464.00,0.69
6462.00,0.69
6460.00,0.69
6458.00,0.69
6456.00,0.69
6454.00,0.69
6452.00,0.69
6450.00,0.69
6448.00,0.69
6446.00,0.69
6444.00,0.69
6442.00,0.69
6440.00,0.69
6438.00,0.70
6436.00,0.70
6434.00,0.70
6432.00,0.70
6430.00,0.69
6428.00,0.69
6426.00,0.69
6424.00,0.69
6422.00,0.69
6420.00,0.69
6418.00,0.69
6416.00,0.69
6414.00,0.69
6412.00,0.69
6410.00,0.69
6408.00,0.69
6406.00,0.69
6404.00,0.69
6402.00,0.69
6400.00,0.69
6398.00,0.70
6396.00,0.70
6394.00,0.70
6392.00,0.70
6390.00,0.70
6388.00,0.70
6386.00,0.70
6384.00,0.70
6382.00,0.70
6380.00,0.70
6378.00,0.70
6376.00,0.70
6374.00,0.70
6372.00,0.70
6370.00,0.70
6368.00,0.70
6366.00,0.70
6364.00,0.70
6362.00,0.70
6360.00,0.70
6358.00,0.70
6356.00,0.70
6354.00,0.70
6352.00,0.70
6350.00,0.70
6348.00,0.70
6346.00,0.70
6344.00,0.70
6342.00,0.70
6340.00,0.70
6338.00,0.70
6336.00,0.70
6334.00,0.70
6332.00,0.70
6330.00,0.70
6328.00,0.70
6326.00,0.70
6324.00,0.70
6322.00,0.70
6320.00,0.70
6318.00,0.70
6316.00,0.70
6314.00,0.70
6312.00,0.70
6310.00,0.70
6308.00,0.70
6306.00,0.70
6304.00,0.70
6302.00,0.70
6300.00,0.70
6298.00,0.70
6296.00,0.70
6294.00,0.70
6292.00,0.70
6290.00,0.70
6288.00,0.70
6286.00,0.70
6284.00,0.70
6282.00,0.70
6280.00,0.70
6278.00,0.71
6276.00,0.71
6274.00,0.71
6272.00,0.71
6270.00,0.71
6268.00,0.71
6266.00,0.71
6264.00,0.70
6262.00,0.71
6260.00,0.71
6258.00,0.71
6256.00,0.71
6254.00,0.71
6252.00,0.71
6250.00,0.71
6248.00,0.71
6246.00,0.71
6244.00,0.71
6242.00,0.71
6240.00,0.71
6238.00,0.71
6236.00,0.71
6234.00,0.71
6232.00,0.71
6230.00,0.71
6228.00,0.71
6226.00,0.71
6224.00,0.71
6222.00,0.71
6220.00,0.71
6218.00,0.71
6216.00,0.71
6214.00,0.71
6212.00,0.71
6210.00,0.71
6208.00,0.71
6206.00,0.71
6204.00,0.71
6202.00,0.71
6200.00,0.71
6198.00,0.71
6196.00,0.71
6194.00,0.71
6192.00,0.71
6190.00,0.71
6188.00,0.71
6186.00,0.71
6184.00,0.71
6182.00,0.71
6180.00,0.71
6178.00,0.71
6176.00,0.71
6174.00,0.71
6172.00,0.71
6170.00,0.71
6168.00,0.71
6166.00,0.71
6164.00,0.71
6162.00,0.72
6160.00,0.72
6158.00,0.72
6156.00,0.72
6154.00,0.72
6152.00,0.72
6150.00,0.72
6148.00,0.72
6146.00,0.72
6144.00,0.72
6142.00,0.72
6140.00,0.72
6138.00,0.72
6136.00,0.72
6134.00,0.72
6132.00,0.72
6130.00,0.72
6128.00,0.72
6126.00,0.72
6124.00,0.72
6122.00,0.72
6120.00,0.72
6118.00,0.72
6116.00,0.72
6114.00,0.72
6112.00,0.72
6110.00,0.72
6108.00,0.72
6106.00,0.72
6104.00,0.72
6102.00,0.72
6100.00,0.72
6098.00,0.72
6096.00,0.72
6094.00,0.72
6092.00,0.72
6090.00,0.72
6088.00,0.72
6086.00,0.72
6084.00,0.72
6082.00,0.72
6080.00,0.72
6078.00,0.72
6076.00,0.72
6074.00,0.72
6072.00,0.72
6070.00,0.72
6068.00,0.72
6066.00,0.72
6064.00,0.72
6062.00,0.72
6060.00,0.72
6058.00,0.72
6056.00,0.72
6054.00,0.72
6052.00,0.72
6050.00,0.72
6048.00,0.72
6046.00,0.72
6044.00,0.72
6042.00,0.73
6040.00,0.73
6038.00,0.73
6036.00,0.73
6034.00,0.73
6032.00,0.73
6030.00,0.73
6028.00,0.73
6026.00,0.73
6024.00,0.73
6022.00,0.72
6020.00,0.72
6018.00,0.72
6016.00,0.72
6014.00,0.72
6012.00,0.72
6010.00,0.73
6008.00,0.73
6006.00,0.73
6004.00,0.73
6002.00,0.73
6000.00,0.73
5998.00,0.73
5996.00,0.73
5994.00,0.73
5992.00,0.73
5990.00,0.73
5988.00,0.73
5986.00,0.73
5984.00,0.73
5982.00,0.73
5980.00,0.72
5978.00,0.72
5976.00,0.72
5974.00,0.72
5972.00,0.72
5970.00,0.72
5968.00,0.72
5966.00,0.72
5964.00,0.72
5962.00,0.72
5960.00,0.72
5958.00,0.72
5956.00,0.72
5954.00,0.71
5952.00,0.71
5950.00,0.71
5948.00,0.71
5946.00,0.71
5944.00,0.71
5942.00,0.71
5940.00,0.71
5938.00,0.71
5936.00,0.71
5934.00,0.71
5932.00,0.71
5930.00,0.71
5928.00,0.71
5926.00,0.71
5924.00,0.71
5922.00,0.71
5920.00,0.71
5918.00,0.71
5916.00,0.71
5914.00,0.71
5912.00,0.71
5910.00,0.71
5908.00,0.71
5906.00,0.71
5904.00,0.71
5902.00,0.71
5900.00,0.71
5898.00,0.71
5896.00,0.71
5894.00,0.71
5892.00,0.71
5890.00,0.71
5888.00,0.71
5886.00,0.71
5884.00,0.71
5882.00,0.71
5880.00,0.71
5878.00,0.71
5876.00,0.71
5874.00,0.71
5872.00,0.71
5870.00,0.71
5868.00,0.71
5866.00,0.71
5864.00,0.72
5862.00,0.72
5860.00,0.72
5858.00,0.72
5856.00,0.72
5854.00,0.72
5852.00,0.72
5850.00,0.72
5848.00,0.72
5846.00,0.72
5844.00,0.72
5842.00,0.72
5840.00,0.72
5838.00,0.72
5836.00,0.72
5834.00,0.71
5832.00,0.71
5830.00,0.71
5828.00,0.72
5826.00,0.72
5824.00,0.72
5822.00,0.72
5820.00,0.72
5818.00,0.72
5816.00,0.72
5814.00,0.72
5812.00,0.72
5810.00,0.71
5808.00,0.71
5806.00,0.71
5804.00,0.71
5802.00,0.71
5800.00,0.71
5798.00,0.71
5796.00,0.71
5794.00,0.71
5792.00,0.71
5790.00,0.71
5788.00,0.71
5786.00,0.71
5784.00,0.71
5782.00,0.71
5780.00,0.71
5778.00,0.71
5776.00,0.71
5774.00,0.71
5772.00,0.71
5770.00,0.71
5768.00,0.71
5766.00,0.71
5764.00,0.71
5762.00,0.71
5760.00,0.71
5758.00,0.71
5756.00,0.71
5754.00,0.71
5752.00,0.71
5750.00,0.71
5748.00,0.71
5746.00,0.71
5744.00,0.71
5742.00,0.72
5740.00,0.72
5738.00,0.72
5736.00,0.72
5734.00,0.72
5732.00,0.72
5730.00,0.72
5728.00,0.72
5726.00,0.72
5724.00,0.72
5722.00,0.72
5720.00,0.72
5718.00,0.72
5716.00,0.72
5714.00,0.72
5712.00,0.72
5710.00,0.72
5708.00,0.72
5706.00,0.72
5704.00,0.72
5702.00,0.72
5700.00,0.72
5698.00,0.72
5696.00,0.72
5694.00,0.72
5692.00,0.72
5690.00,0.72
5688.00,0.72
5686.00,0.72
5684.00,0.72
5682.00,0.72
5680.00,0.72
5678.00,0.72
5676.00,0.72
5674.00,0.72
5672.00,0.72
5670.00,0.72
5668.00,0.72
5666.00,0.72
5664.00,0.72
5662.00,0.72
5660.00,0.72
5658.00,0.72
5656.00,0.72
5654.00,0.72
5652.00,0.72
5650.00,0.72
5648.00,0.72
5646.00,0.72
5644.00,0.72
5642.00,0.72
5640.00,0.72
5638.00,0.72
5636.00,0.72
5634.00,0.72
5632.00,0.72
5630.00,0.72
5628.00,0.72
5626.00,0.72
5624.00,0.72
5622.00,0.72
5620.00,0.72
5618.00,0.72
5616.00,0.72
5614.00,0.72
5612.00,0.72
5610.00,0.72
5608.00,0.72
5606.00,0.73
5604.00,0.73
5602.00,0.73
5600.00,0.73
5598.00,0.73
5596.00,0.73
5594.00,0.73
5592.00,0.73
5590.00,0.73
5588.00,0.73
5586.00,0.73
5584.00,0.73
5582.00,0.73
5580.00,0.73
5578.00,0.73
5576.00,0.73
5574.00,0.73
5572.00,0.73
5570.00,0.73
5568.00,0.73
5566.00,0.73
5564.00,0.73
5562.00,0.73
5560.00,0.73
5558.00,0.73
5556.00,0.73
5554.00,0.73
5552.00,0.73
5550.00,0.73
5548.00,0.73
5546.00,0.73
5544.00,0.73
5542.00,0.73
5540.00,0.73
5538.00,0.73
5536.00,0.73
5534.00,0.73
5532.00,0.73
5530.00,0.73
5528.00,0.73
5526.00,0.73
5524.00,0.73
5522.00,0.73
5520.00,0.73
5518.00,0.73
5516.00,0.73
5514.00,0.73
5512.00,0.73
5510.00,0.73
5508.00,0.73
5506.00,0.73
5504.00,0.73
5502.00,0.73
5500.00,0.73
5498.00,0.73
5496.00,0.73
5494.00,0.73
5492.00,0.73
5490.00,0.73
5488.00,0.73
5486.00,0.73
5484.00,0.73
5482.00,0.73
5480.00,0.73
5478.00,0.73
5476.00,0.73
5474.00,0.73
5472.00,0.73
5470.00,0.73
5468.00,0.73
5466.00,0.73
5464.00,0.73
5462.00,0.73
5460.00,0.73
5458.00,0.73
5456.00,0.73
5454.00,0.73
5452.00,0.73
5450.00,0.73
5448.00,0.73
5446.00,0.73
5444.00,0.73
5442.00,0.73
5440.00,0.73
5438.00,0.73
5436.00,0.73
5434.00,0.73
5432.00,0.73
5430.00,0.73
5428.00,0.73
5426.00,0.73
5424.00,0.73
5422.00,0.73
5420.00,0.74
5418.00,0.73
5416.00,0.73
5414.00,0.73
5412.00,0.73
5410.00,0.73
5408.00,0.73
5406.00,0.73
5404.00,0.73
5402.00,0.73
5400.00,0.73
5398.00,0.73
5396.00,0.73
5394.00,0.73
5392.00,0.73
5390.00,0.73
5388.00,0.73
5386.00,0.73
5384.00,0.73
5382.00,0.73
5380.00,0.73
5378.00,0.73
5376.00,0.73
5374.00,0.73
5372.00,0.73
5370.00,0.73
5368.00,0.73
5366.00,0.73
5364.00,0.73
5362.00,0.73
5360.00,0.73
5358.00,0.73
5356.00,0.73
5354.00,0.73
5352.00,0.72
5350.00,0.72
5348.00,0.72
5346.00,0.72
5344.00,0.72
5342.00,0.72
5340.00,0.72
5338.00,0.71
5336.00,0.71
5334.00,0.71
5332.00,0.71
5330.00,0.71
5328.00,0.71
5326.00,0.71
5324.00,0.71
5322.00,0.71
5320.00,0.70
5318.00,0.70
5316.00,0.70
5314.00,0.70
5312.00,0.69
5310.00,0.69
5308.00,0.69
5306.00,0.69
5304.00,0.68
5302.00,0.68
5300.00,0.68
5298.00,0.68
5296.00,0.68
5294.00,0.68
5292.00,0.67
5290.00,0.67
5288.00,0.67
5286.00,0.67
5284.00,0.67
5282.00,0.67
5280.00,0.66
5278.00,0.66
5276.00,0.66
5274.00,0.66
5272.00,0.66
5270.00,0.66
5268.00,0.65
5266.00,0.65
5264.00,0.65
5262.00,0.65
5260.00,0.64
5258.00,0.64
5256.00,0.64
5254.00,0.64
5252.00,0.64
5250.00,0.64
5248.00,0.64
5246.00,0.63
5244.00,0.63
5242.00,0.63
5240.00,0.63
5238.00,0.63
5236.00,0.63
5234.00,0.63
5232.00,0.63
5230.00,0.63
5228.00,0.63
5226.00,0.62
5224.00,0.62
5222.00,0.62
5220.00,0.62
5218.00,0.62
5216.00,0.62
5214.00,0.62
5212.00,0.62
5210.00,0.62
5208.00,0.62
5206.00,0.61
5204.00,0.61
5202.00,0.61
5200.00,0.61
5198.00,0.61
5196.00,0.61
5194.00,0.61
5192.00,0.61
5190.00,0.61
5188.00,0.61
5186.00,0.61
5184.00,0.61
5182.00,0.61
5180.00,0.61
5178.00,0.61
5176.00,0.61
5174.00,0.61
5172.00,0.61
5170.00,0.61
5168.00,0.61
5166.00,0.61
5164.00,0.61
5162.00,0.61
5160.00,0.61
5158.00,0.61
5156.00,0.61
5154.00,0.61
5152.00,0.61
5150.00,0.61
5148.00,0.61
5146.00,0.61
5144.00,0.62
5142.00,0.62
5140.00,0.62
5138.00,0.62
5136.00,0.62
5134.00,0.62
5132.00,0.62
5130.00,0.62
5128.00,0.62
5126.00,0.62
5124.00,0.62
5122.00,0.62
5120.00,0.62
5118.00,0.62
5116.00,0.62
5114.00,0.63
5112.00,0.63
5110.00,0.63
5108.00,0.63
5106.00,0.63
5104.00,0.63
5102.00,0.63
5100.00,0.63
5098.00,0.63
5096.00,0.64
5094.00,0.64
5092.00,0.64
5090.00,0.64
5088.00,0.64
5086.00,0.64
5084.00,0.64
5082.00,0.64
5080.00,0.64
5078.00,0.64
5076.00,0.64
5074.00,0.64
5072.00,0.64
5070.00,0.64
5068.00,0.65
5066.00,0.65
5064.00,0.65
5062.00,0.65
5060.00,0.65
5058.00,0.65
5056.00,0.65
5054.00,0.65
5052.00,0.65
5050.00,0.66
5048.00,0.66
5046.00,0.66
5044.00,0.66
5042.00,0.66
5040.00,0.66
5038.00,0.66
5036.00,0.66
5034.00,0.66
5032.00,0.66
5030.00,0.66
5028.00,0.66
5026.00,0.66
5024.00,0.66
5022.00,0.66
5020.00,0.66
5018.00,0.67
5016.00,0.67
5014.00,0.67
5012.00,0.67
5010.00,0.67
5008.00,0.67
5006.00,0.67
5004.00,0.67
5002.00,0.67
5000.00,0.67
4998.00,0.67
4996.00,0.68
4994.00,0.68
4992.00,0.68
4990.00,0.68
4988.00,0.68
4986.00,0.68
4984.00,0.68
4982.00,0.68
4980.00,0.68
4978.00,0.68
4976.00,0.68
4974.00,0.68
4972.00,0.68
4970.00,0.68
4968.00,0.68
4966.00,0.68
4964.00,0.68
4962.00,0.68
4960.00,0.69
4958.00,0.69
4956.00,0.69
4954.00,0.69
4952.00,0.69
4950.00,0.69
4948.00,0.69
4946.00,0.69
4944.00,0.69
4942.00,0.69
4940.00,0.69
4938.00,0.69
4936.00,0.69
4934.00,0.69
4932.00,0.69
4930.00,0.69
4928.00,0.69
4926.00,0.70
4924.00,0.70
4922.00,0.70
4920.00,0.70
4918.00,0.70
4916.00,0.70
4914.00,0.70
4912.00,0.70
4910.00,0.70
4908.00,0.70
4906.00,0.70
4904.00,0.70
4902.00,0.70
4900.00,0.70
4898.00,0.70
4896.00,0.70
4894.00,0.70
4892.00,0.70
4890.00,0.70
4888.00,0.70
4886.00,0.70
4884.00,0.70
4882.00,0.70
4880.00,0.70
4878.00,0.70
4876.00,0.70
4874.00,0.70
4872.00,0.70
4870.00,0.70
4868.00,0.70
4866.00,0.70
4864.00,0.70
4862.00,0.70
4860.00,0.70
4858.00,0.70
4856.00,0.70
4854.00,0.70
4852.00,0.70
4850.00,0.70
4848.00,0.70
4846.00,0.70
4844.00,0.70
4842.00,0.70
4840.00,0.70
4838.00,0.70
4836.00,0.70
4834.00,0.70
4832.00,0.70
4830.00,0.70
4828.00,0.70
4826.00,0.70
4824.00,0.70
4822.00,0.70
4820.00,0.70
4818.00,0.70
4816.00,0.71
4814.00,0.71
4812.00,0.71
4810.00,0.71
4808.00,0.71
4806.00,0.71
4804.00,0.71
4802.00,0.71
4800.00,0.71
4798.00,0.71
4796.00,0.71
4794.00,0.71
4792.00,0.71
4790.00,0.71
4788.00,0.71
4786.00,0.71
4784.00,0.71
4782.00,0.71
4780.00,0.71
4778.00,0.71
4776.00,0.71
4774.00,0.71
4772.00,0.71
4770.00,0.71
4768.00,0.71
4766.00,0.71
4764.00,0.71
4762.00,0.71
4760.00,0.71
4758.00,0.71
4756.00,0.71
4754.00,0.71
4752.00,0.71
4750.00,0.72
4748.00,0.72
4746.00,0.72
4744.00,0.72
4742.00,0.72
4740.00,0.72
4738.00,0.72
4736.00,0.72
4734.00,0.72
4732.00,0.72
4730.00,0.72
4728.00,0.72
4726.00,0.72
4724.00,0.72
4722.00,0.72
4720.00,0.72
4718.00,0.72
4716.00,0.72
4714.00,0.72
4712.00,0.73
4710.00,0.73
4708.00,0.73
4706.00,0.73
4704.00,0.73
4702.00,0.73
4700.00,0.73
4698.00,0.73
4696.00,0.73
4694.00,0.73
4692.00,0.73
4690.00,0.73
4688.00,0.73
4686.00,0.73
4684.00,0.73
4682.00,0.73
4680.00,0.73
4678.00,0.72
4676.00,0.72
4674.00,0.72
4672.00,0.72
4670.00,0.72
4668.00,0.72
4666.00,0.72
4664.00,0.72
4662.00,0.72
4660.00,0.72
4658.00,0.73
4656.00,0.73
4654.00,0.73
4652.00,0.73
4650.00,0.73
4648.00,0.73
4646.00,0.73
4644.00,0.73
4642.00,0.73
4640.00,0.73
4638.00,0.73
4636.00,0.73
4634.00,0.73
4632.00,0.73
4630.00,0.73
4628.00,0.73
4626.00,0.73
4624.00,0.73
4622.00,0.73
4620.00,0.73
4618.00,0.73
4616.00,0.73
4614.00,0.73
4612.00,0.73
4610.00,0.73
4608.00,0.73
4606.00,0.73
4604.00,0.73
4602.00,0.73
4600.00,0.73
4598.00,0.73
4596.00,0.73
4594.00,0.73
4592.00,0.73
4590.00,0.73
4588.00,0.73
4586.00,0.73
4584.00,0.73
4582.00,0.73
4580.00,0.73
4578.00,0.73
4576.00,0.73
4574.00,0.73
4572.00,0.73
4570.00,0.73
4568.00,0.73
4566.00,0.73
4564.00,0.73
4562.00,0.73
4560.00,0.73
4558.00,0.73
4556.00,0.73
4554.00,0.73
4552.00,0.73
4550.00,0.73
4548.00,0.73
4546.00,0.73
4544.00,0.73
4542.00,0.73
4540.00,0.73
4538.00,0.73
4536.00,0.73
4534.00,0.73
4532.00,0.73
4530.00,0.73
4528.00,0.73
4526.00,0.73
4524.00,0.73
4522.00,0.73
4520.00,0.73
4518.00,0.73
4516.00,0.73
4514.00,0.73
4512.00,0.73
4510.00,0.73
4508.00,0.73
4506.00,0.73
4504.00,0.73
4502.00,0.73
4500.00,0.73
4498.00,0.73
4496.00,0.73
4494.00,0.73
4492.00,0.73
4490.00,0.73
4488.00,0.73
4486.00,0.73
4484.00,0.73
4482.00,0.73
4480.00,0.73
4478.00,0.73
4476.00,0.73
4474.00,0.73
4472.00,0.73
4470.00,0.73
4468.00,0.73
4466.00,0.73
4464.00,0.73
4462.00,0.73
4460.00,0.73
4458.00,0.73
4456.00,0.73
4454.00,0.73
4452.00,0.73
4450.00,0.73
4448.00,0.73
4446.00,0.72
4444.00,0.72
4442.00,0.72
4440.00,0.72
4438.00,0.71
4436.00,0.71
4434.00,0.71
4432.00,0.70
4430.00,0.70
4428.00,0.70
4426.00,0.69
4424.00,0.69
4422.00,0.69
4420.00,0.69
4418.00,0.69
4416.00,0.68
4414.00,0.68
4412.00,0.68
4410.00,0.68
4408.00,0.68
4406.00,0.68
4404.00,0.69
4402.00,0.69
4400.00,0.69
4398.00,0.69
4396.00,0.69
4394.00,0.69
4392.00,0.69
4390.00,0.69
4388.00,0.69
4386.00,0.69
4384.00,0.70
4382.00,0.70
4380.00,0.70
4378.00,0.70
4376.00,0.70
4374.00,0.70
4372.00,0.70
4370.00,0.70
4368.00,0.70
4366.00,0.70
4364.00,0.70
4362.00,0.70
4360.00,0.70
4358.00,0.70
4356.00,0.70
4354.00,0.70
4352.00,0.70
4350.00,0.69
4348.00,0.69
4346.00,0.69
4344.00,0.69
4342.00,0.69
4340.00,0.69
4338.00,0.69
4336.00,0.69
4334.00,0.69
4332.00,0.69
4330.00,0.69
4328.00,0.69
4326.00,0.69
4324.00,0.70
4322.00,0.70
4320.00,0.70
4318.00,0.70
4316.00,0.71
4314.00,0.71
4312.00,0.71
4310.00,0.71
4308.00,0.72
4306.00,0.72
4304.00,0.72
4302.00,0.72
4300.00,0.73
4298.00,0.73
4296.00,0.73
4294.00,0.73
4292.00,0.73
4290.00,0.73
4288.00,0.73
4286.00,0.73
4284.00,0.73
4282.00,0.73
4280.00,0.73
4278.00,0.73
4276.00,0.73
4274.00,0.73
4272.00,0.72
4270.00,0.72
4268.00,0.72
4266.00,0.72
4264.00,0.72
4262.00,0.72
4260.00,0.72
4258.00,0.72
4256.00,0.72
4254.00,0.72
4252.00,0.71
4250.00,0.71
4248.00,0.72
4246.00,0.72
4244.00,0.72
4242.00,0.72
4240.00,0.72
4238.00,0.73
4236.00,0.73
4234.00,0.73
4232.00,0.73
4230.00,0.73
4228.00,0.73
4226.00,0.73
4224.00,0.73
4222.00,0.73
4220.00,0.73
4218.00,0.73
4216.00,0.73
4214.00,0.73
4212.00,0.73
4210.00,0.73
4208.00,0.73
4206.00,0.73
4204.00,0.73
4202.00,0.73
4200.00,0.73
4198.00,0.73
4196.00,0.73
4194.00,0.73
4192.00,0.73
4190.00,0.73
4188.00,0.73
4186.00,0.73
4184.00,0.73
4182.00,0.73
4180.00,0.73
4178.00,0.73
4176.00,0.73
4174.00,0.73
4172.00,0.73
4170.00,0.73
4168.00,0.73
4166.00,0.73
4164.00,0.73
4162.00,0.73
4160.00,0.72
4158.00,0.72
4156.00,0.72
4154.00,0.72
4152.00,0.72
4150.00,0.72
4148.00,0.72
4146.00,0.72
4144.00,0.72
4142.00,0.72
4140.00,0.72
4138.00,0.72
4136.00,0.73
4134.00,0.73
4132.00,0.73
4130.00,0.73
4128.00,0.73
4126.00,0.73
4124.00,0.73
4122.00,0.73
4120.00,0.73
4118.00,0.73
4116.00,0.73
4114.00,0.73
4112.00,0.73
4110.00,0.73
4108.00,0.72
4106.00,0.72
4104.00,0.72
4102.00,0.72
4100.00,0.72
4098.00,0.72
4096.00,0.72
4094.00,0.72
4092.00,0.72
4090.00,0.72
4088.00,0.72
4086.00,0.72
4084.00,0.72
4082.00,0.72
4080.00,0.72
4078.00,0.72
4076.00,0.72
4074.00,0.72
4072.00,0.71
4070.00,0.71
4068.00,0.71
4066.00,0.71
4064.00,0.71
4062.00,0.71
4060.00,0.71
4058.00,0.71
4056.00,0.71
4054.00,0.71
4052.00,0.71
4050.00,0.71
4048.00,0.71
4046.00,0.71
4044.00,0.71
4042.00,0.71
4040.00,0.71
4038.00,0.71
4036.00,0.71
4034.00,0.71
4032.00,0.71
4030.00,0.71
4028.00,0.71
4026.00,0.71
4024.00,0.71
4022.00,0.71
4020.00,0.71
4018.00,0.71
4016.00,0.71
4014.00,0.72
4012.00,0.72
4010.00,0.72
4008.00,0.73
4006.00,0.73
4004.00,0.73
4002.00,0.73
4000.00,0.73
