创建为新数据集,样品 1768 用户 Administrator 日期 星期三, 三月 15 2017
cm-1,%T
10000.00,0.83
9998.00,0.83
9996.00,0.83
9994.00,0.82
9992.00,0.82
9990.00,0.82
9988.00,0.81
9986.00,0.81
9984.00,0.81
9982.00,0.81
9980.00,0.81
9978.00,0.82
9976.00,0.82
9974.00,0.83
9972.00,0.83
9970.00,0.83
9968.00,0.83
9966.00,0.84
9964.00,0.83
9962.00,0.83
9960.00,0.83
9958.00,0.82
9956.00,0.82
9954.00,0.82
9952.00,0.81
9950.00,0.81
9948.00,0.81
9946.00,0.81
9944.00,0.80
9942.00,0.80
9940.00,0.80
9938.00,0.80
9936.00,0.80
9934.00,0.80
9932.00,0.80
9930.00,0.80
9928.00,0.80
9926.00,0.80
9924.00,0.80
9922.00,0.80
9920.00,0.80
9918.00,0.80
9916.00,0.79
9914.00,0.79
9912.00,0.79
9910.00,0.79
9908.00,0.79
9906.00,0.79
9904.00,0.80
9902.00,0.81
9900.00,0.81
9898.00,0.82
9896.00,0.82
9894.00,0.83
9892.00,0.83
9890.00,0.83
9888.00,0.83
9886.00,0.82
9884.00,0.82
9882.00,0.81
9880.00,0.80
9878.00,0.80
9876.00,0.80
9874.00,0.80
9872.00,0.80
9870.00,0.80
9868.00,0.80
9866.00,0.80
9864.00,0.81
9862.00,0.81
9860.00,0.81
9858.00,0.81
9856.00,0.80
9854.00,0.80
9852.00,0.80
9850.00,0.80
9848.00,0.79
9846.00,0.80
9844.00,0.80
9842.00,0.80
9840.00,0.81
9838.00,0.81
9836.00,0.82
9834.00,0.82
9832.00,0.82
9830.00,0.82
9828.00,0.81
9826.00,0.81
9824.00,0.80
9822.00,0.80
9820.00,0.80
9818.00,0.80
9816.00,0.80
9814.00,0.80
9812.00,0.81
9810.00,0.81
9808.00,0.81
9806.00,0.81
9804.00,0.80
9802.00,0.80
9800.00,0.79
9798.00,0.79
9796.00,0.79
9794.00,0.79
9792.00,0.79
9790.00,0.79
9788.00,0.80
9786.00,0.80
9784.00,0.80
9782.00,0.81
9780.00,0.81
9778.00,0.82
9776.00,0.82
9774.00,0.82
9772.00,0.82
9770.00,0.82
9768.00,0.82
9766.00,0.81
9764.00,0.81
9762.00,0.81
9760.00,0.81
9758.00,0.80
9756.00,0.80
9754.00,0.80
9752.00,0.79
9750.00,0.79
9748.00,0.79
9746.00,0.79
9744.00,0.79
9742.00,0.79
9740.00,0.79
9738.00,0.80
9736.00,0.81
9734.00,0.81
9732.00,0.82
9730.00,0.83
9728.00,0.83
9726.00,0.83
9724.00,0.83
9722.00,0.83
9720.00,0.83
9718.00,0.83
9716.00,0.83
9714.00,0.83
9712.00,0.83
9710.00,0.83
9708.00,0.82
9706.00,0.82
9704.00,0.82
9702.00,0.82
9700.00,0.82
9698.00,0.82
9696.00,0.82
9694.00,0.82
9692.00,0.82
9690.00,0.82
9688.00,0.81
9686.00,0.81
9684.00,0.80
9682.00,0.80
9680.00,0.79
9678.00,0.79
9676.00,0.79
9674.00,0.80
9672.00,0.80
9670.00,0.81
9668.00,0.81
9666.00,0.82
9664.00,0.82
9662.00,0.83
9660.00,0.83
9658.00,0.82
9656.00,0.82
9654.00,0.82
9652.00,0.81
9650.00,0.81
9648.00,0.81
9646.00,0.81
9644.00,0.82
9642.00,0.82
9640.00,0.83
9638.00,0.84
9636.00,0.84
9634.00,0.85
9632.00,0.85
9630.00,0.85
9628.00,0.84
9626.00,0.84
9624.00,0.83
9622.00,0.82
9620.00,0.82
9618.00,0.81
9616.00,0.81
9614.00,0.81
9612.00,0.81
9610.00,0.81
9608.00,0.80
9606.00,0.80
9604.00,0.80
9602.00,0.79
9600.00,0.79
9598.00,0.79
9596.00,0.79
9594.00,0.79
9592.00,0.80
9590.00,0.80
9588.00,0.80
9586.00,0.81
9584.00,0.81
9582.00,0.81
9580.00,0.81
9578.00,0.81
9576.00,0.80
9574.00,0.80
9572.00,0.80
9570.00,0.80
9568.00,0.80
9566.00,0.80
9564.00,0.80
9562.00,0.80
9560.00,0.80
9558.00,0.80
9556.00,0.80
9554.00,0.80
9552.00,0.80
9550.00,0.80
9548.00,0.80
9546.00,0.80
9544.00,0.80
9542.00,0.80
9540.00,0.80
9538.00,0.80
9536.00,0.80
9534.00,0.80
9532.00,0.80
9530.00,0.80
9528.00,0.80
9526.00,0.79
9524.00,0.79
9522.00,0.79
9520.00,0.79
9518.00,0.79
9516.00,0.79
9514.00,0.79
9512.00,0.79
9510.00,0.79
9508.00,0.79
9506.00,0.79
9504.00,0.79
9502.00,0.79
9500.00,0.80
9498.00,0.80
9496.00,0.81
9494.00,0.81
9492.00,0.82
9490.00,0.82
9488.00,0.83
9486.00,0.83
9484.00,0.83
9482.00,0.83
9480.00,0.83
9478.00,0.83
9476.00,0.83
9474.00,0.83
9472.00,0.83
9470.00,0.83
9468.00,0.83
9466.00,0.83
9464.00,0.83
9462.00,0.82
9460.00,0.82
9458.00,0.82
9456.00,0.81
9454.00,0.81
9452.00,0.81
9450.00,0.81
9448.00,0.81
9446.00,0.81
9444.00,0.81
9442.00,0.81
9440.00,0.81
9438.00,0.81
9436.00,0.81
9434.00,0.81
9432.00,0.81
9430.00,0.81
9428.00,0.81
9426.00,0.81
9424.00,0.81
9422.00,0.81
9420.00,0.81
9418.00,0.81
9416.00,0.81
9414.00,0.81
9412.00,0.81
9410.00,0.80
9408.00,0.80
9406.00,0.80
9404.00,0.80
9402.00,0.80
9400.00,0.80
9398.00,0.80
9396.00,0.81
9394.00,0.81
9392.00,0.81
9390.00,0.82
9388.00,0.82
9386.00,0.82
9384.00,0.82
9382.00,0.82
9380.00,0.82
9378.00,0.82
9376.00,0.82
9374.00,0.82
9372.00,0.82
9370.00,0.81
9368.00,0.81
9366.00,0.81
9364.00,0.80
9362.00,0.80
9360.00,0.80
9358.00,0.80
9356.00,0.80
9354.00,0.80
9352.00,0.79
9350.00,0.79
9348.00,0.79
9346.00,0.79
9344.00,0.80
9342.00,0.80
9340.00,0.80
9338.00,0.80
9336.00,0.81
9334.00,0.81
9332.00,0.81
9330.00,0.81
9328.00,0.81
9326.00,0.81
9324.00,0.81
9322.00,0.81
9320.00,0.81
9318.00,0.81
9316.00,0.81
9314.00,0.82
9312.00,0.82
9310.00,0.82
9308.00,0.82
9306.00,0.82
9304.00,0.82
9302.00,0.81
9300.00,0.81
9298.00,0.81
9296.00,0.81
9294.00,0.81
9292.00,0.81
9290.00,0.81
9288.00,0.81
9286.00,0.80
9284.00,0.81
9282.00,0.81
9280.00,0.81
9278.00,0.80
9276.00,0.80
9274.00,0.80
9272.00,0.80
9270.00,0.80
9268.00,0.80
9266.00,0.80
9264.00,0.80
9262.00,0.80
9260.00,0.80
9258.00,0.80
9256.00,0.80
9254.00,0.81
9252.00,0.81
9250.00,0.81
9248.00,0.82
9246.00,0.82
9244.00,0.81
9242.00,0.81
9240.00,0.81
9238.00,0.81
9236.00,0.80
9234.00,0.80
9232.00,0.80
9230.00,0.80
9228.00,0.81
9226.00,0.81
9224.00,0.81
9222.00,0.82
9220.00,0.82
9218.00,0.82
9216.00,0.83
9214.00,0.83
9212.00,0.83
9210.00,0.83
9208.00,0.82
9206.00,0.82
9204.00,0.82
9202.00,0.81
9200.00,0.81
9198.00,0.81
9196.00,0.80
9194.00,0.80
9192.00,0.80
9190.00,0.80
9188.00,0.80
9186.00,0.80
9184.00,0.80
9182.00,0.81
9180.00,0.81
9178.00,0.81
9176.00,0.81
9174.00,0.81
9172.00,0.81
9170.00,0.81
9168.00,0.81
9166.00,0.81
9164.00,0.81
9162.00,0.81
9160.00,0.81
9158.00,0.81
9156.00,0.81
9154.00,0.81
9152.00,0.81
9150.00,0.81
9148.00,0.81
9146.00,0.81
9144.00,0.81
9142.00,0.81
9140.00,0.81
9138.00,0.81
9136.00,0.81
9134.00,0.81
9132.00,0.81
9130.00,0.82
9128.00,0.82
9126.00,0.81
9124.00,0.81
9122.00,0.81
9120.00,0.80
9118.00,0.80
9116.00,0.80
9114.00,0.80
9112.00,0.80
9110.00,0.80
9108.00,0.80
9106.00,0.80
9104.00,0.80
9102.00,0.80
9100.00,0.80
9098.00,0.80
9096.00,0.80
9094.00,0.80
9092.00,0.80
9090.00,0.80
9088.00,0.80
9086.00,0.80
9084.00,0.80
9082.00,0.80
9080.00,0.81
9078.00,0.81
9076.00,0.81
9074.00,0.81
9072.00,0.81
9070.00,0.81
9068.00,0.81
9066.00,0.81
9064.00,0.80
9062.00,0.80
9060.00,0.80
9058.00,0.80
9056.00,0.81
9054.00,0.81
9052.00,0.81
9050.00,0.81
9048.00,0.81
9046.00,0.81
9044.00,0.81
9042.00,0.81
9040.00,0.81
9038.00,0.81
9036.00,0.81
9034.00,0.81
9032.00,0.81
9030.00,0.81
9028.00,0.81
9026.00,0.82
9024.00,0.82
9022.00,0.82
9020.00,0.82
9018.00,0.82
9016.00,0.82
9014.00,0.82
9012.00,0.82
9010.00,0.82
9008.00,0.82
9006.00,0.82
9004.00,0.82
9002.00,0.82
9000.00,0.82
8998.00,0.82
8996.00,0.82
8994.00,0.82
8992.00,0.82
8990.00,0.82
8988.00,0.82
8986.00,0.82
8984.00,0.82
8982.00,0.83
8980.00,0.83
8978.00,0.83
8976.00,0.83
8974.00,0.82
8972.00,0.82
8970.00,0.82
8968.00,0.82
8966.00,0.82
8964.00,0.81
8962.00,0.81
8960.00,0.81
8958.00,0.81
8956.00,0.81
8954.00,0.80
8952.00,0.80
8950.00,0.80
8948.00,0.80
8946.00,0.80
8944.00,0.80
8942.00,0.80
8940.00,0.80
8938.00,0.80
8936.00,0.80
8934.00,0.81
8932.00,0.81
8930.00,0.81
8928.00,0.81
8926.00,0.82
8924.00,0.82
8922.00,0.82
8920.00,0.82
8918.00,0.82
8916.00,0.82
8914.00,0.82
8912.00,0.82
8910.00,0.82
8908.00,0.82
8906.00,0.82
8904.00,0.82
8902.00,0.82
8900.00,0.82
8898.00,0.81
8896.00,0.81
8894.00,0.81
8892.00,0.81
8890.00,0.81
8888.00,0.81
8886.00,0.80
8884.00,0.80
8882.00,0.80
8880.00,0.80
8878.00,0.80
8876.00,0.80
8874.00,0.80
8872.00,0.80
8870.00,0.80
8868.00,0.80
8866.00,0.80
8864.00,0.80
8862.00,0.81
8860.00,0.81
8858.00,0.81
8856.00,0.81
8854.00,0.81
8852.00,0.81
8850.00,0.80
8848.00,0.80
8846.00,0.80
8844.00,0.80
8842.00,0.80
8840.00,0.80
8838.00,0.80
8836.00,0.80
8834.00,0.80
8832.00,0.79
8830.00,0.79
8828.00,0.79
8826.00,0.79
8824.00,0.80
8822.00,0.80
8820.00,0.80
8818.00,0.80
8816.00,0.80
8814.00,0.80
8812.00,0.80
8810.00,0.81
8808.00,0.80
8806.00,0.81
8804.00,0.81
8802.00,0.81
8800.00,0.81
8798.00,0.81
8796.00,0.81
8794.00,0.81
8792.00,0.82
8790.00,0.82
8788.00,0.82
8786.00,0.82
8784.00,0.82
8782.00,0.82
8780.00,0.81
8778.00,0.81
8776.00,0.81
8774.00,0.81
8772.00,0.81
8770.00,0.81
8768.00,0.81
8766.00,0.81
8764.00,0.81
8762.00,0.81
8760.00,0.81
8758.00,0.81
8756.00,0.81
8754.00,0.81
8752.00,0.82
8750.00,0.82
8748.00,0.82
8746.00,0.82
8744.00,0.81
8742.00,0.81
8740.00,0.81
8738.00,0.81
8736.00,0.80
8734.00,0.80
8732.00,0.80
8730.00,0.80
8728.00,0.80
8726.00,0.80
8724.00,0.80
8722.00,0.80
8720.00,0.80
8718.00,0.80
8716.00,0.80
8714.00,0.80
8712.00,0.80
8710.00,0.80
8708.00,0.80
8706.00,0.80
8704.00,0.80
8702.00,0.80
8700.00,0.80
8698.00,0.80
8696.00,0.80
8694.00,0.80
8692.00,0.80
8690.00,0.80
8688.00,0.80
8686.00,0.80
8684.00,0.80
8682.00,0.80
8680.00,0.80
8678.00,0.80
8676.00,0.80
8674.00,0.81
8672.00,0.81
8670.00,0.81
8668.00,0.81
8666.00,0.81
8664.00,0.81
8662.00,0.81
8660.00,0.81
8658.00,0.81
8656.00,0.81
8654.00,0.81
8652.00,0.81
8650.00,0.80
8648.00,0.80
8646.00,0.80
8644.00,0.80
8642.00,0.80
8640.00,0.80
8638.00,0.80
8636.00,0.80
8634.00,0.80
8632.00,0.80
8630.00,0.80
8628.00,0.80
8626.00,0.80
8624.00,0.80
8622.00,0.80
8620.00,0.80
8618.00,0.80
8616.00,0.80
8614.00,0.80
8612.00,0.80
8610.00,0.80
8608.00,0.80
8606.00,0.81
8604.00,0.81
8602.00,0.82
8600.00,0.82
8598.00,0.82
8596.00,0.82
8594.00,0.82
8592.00,0.82
8590.00,0.81
8588.00,0.81
8586.00,0.81
8584.00,0.81
8582.00,0.81
8580.00,0.81
8578.00,0.81
8576.00,0.81
8574.00,0.81
8572.00,0.81
8570.00,0.81
8568.00,0.81
8566.00,0.80
8564.00,0.80
8562.00,0.80
8560.00,0.80
8558.00,0.80
8556.00,0.80
8554.00,0.80
8552.00,0.81
8550.00,0.81
8548.00,0.81
8546.00,0.81
8544.00,0.82
8542.00,0.82
8540.00,0.82
8538.00,0.82
8536.00,0.82
8534.00,0.82
8532.00,0.81
8530.00,0.81
8528.00,0.81
8526.00,0.80
8524.00,0.80
8522.00,0.80
8520.00,0.80
8518.00,0.80
8516.00,0.80
8514.00,0.80
8512.00,0.80
8510.00,0.80
8508.00,0.80
8506.00,0.80
8504.00,0.81
8502.00,0.81
8500.00,0.81
8498.00,0.81
8496.00,0.81
8494.00,0.81
8492.00,0.81
8490.00,0.81
8488.00,0.80
8486.00,0.80
8484.00,0.80
8482.00,0.80
8480.00,0.80
8478.00,0.80
8476.00,0.80
8474.00,0.80
8472.00,0.80
8470.00,0.80
8468.00,0.80
8466.00,0.80
8464.00,0.80
8462.00,0.80
8460.00,0.80
8458.00,0.80
8456.00,0.80
8454.00,0.80
8452.00,0.80
8450.00,0.80
8448.00,0.80
8446.00,0.80
8444.00,0.80
8442.00,0.80
8440.00,0.80
8438.00,0.80
8436.00,0.80
8434.00,0.80
8432.00,0.80
8430.00,0.80
8428.00,0.80
8426.00,0.79
8424.00,0.79
8422.00,0.79
8420.00,0.79
8418.00,0.79
8416.00,0.79
8414.00,0.79
8412.00,0.79
8410.00,0.79
8408.00,0.79
8406.00,0.79
8404.00,0.79
8402.00,0.79
8400.00,0.79
8398.00,0.79
8396.00,0.79
8394.00,0.79
8392.00,0.79
8390.00,0.79
8388.00,0.79
8386.00,0.79
8384.00,0.79
8382.00,0.79
8380.00,0.79
8378.00,0.79
8376.00,0.79
8374.00,0.79
8372.00,0.79
8370.00,0.80
8368.00,0.80
8366.00,0.80
8364.00,0.80
8362.00,0.80
8360.00,0.79
8358.00,0.79
8356.00,0.79
8354.00,0.78
8352.00,0.78
8350.00,0.78
8348.00,0.79
8346.00,0.79
8344.00,0.79
8342.00,0.80
8340.00,0.80
8338.00,0.80
8336.00,0.80
8334.00,0.80
8332.00,0.80
8330.00,0.80
8328.00,0.80
8326.00,0.80
8324.00,0.80
8322.00,0.80
8320.00,0.81
8318.00,0.81
8316.00,0.80
8314.00,0.80
8312.00,0.80
8310.00,0.80
8308.00,0.80
8306.00,0.79
8304.00,0.79
8302.00,0.79
8300.00,0.79
8298.00,0.79
8296.00,0.80
8294.00,0.80
8292.00,0.80
8290.00,0.80
8288.00,0.81
8286.00,0.81
8284.00,0.81
8282.00,0.81
8280.00,0.81
8278.00,0.81
8276.00,0.81
8274.00,0.81
8272.00,0.81
8270.00,0.81
8268.00,0.81
8266.00,0.81
8264.00,0.81
8262.00,0.81
8260.00,0.81
8258.00,0.81
8256.00,0.81
8254.00,0.81
8252.00,0.81
8250.00,0.81
8248.00,0.81
8246.00,0.81
8244.00,0.81
8242.00,0.81
8240.00,0.81
8238.00,0.81
8236.00,0.81
8234.00,0.81
8232.00,0.81
8230.00,0.80
8228.00,0.80
8226.00,0.80
8224.00,0.80
8222.00,0.80
8220.00,0.80
8218.00,0.80
8216.00,0.80
8214.00,0.80
8212.00,0.81
8210.00,0.81
8208.00,0.81
8206.00,0.81
8204.00,0.81
8202.00,0.81
8200.00,0.81
8198.00,0.81
8196.00,0.81
8194.00,0.81
8192.00,0.81
8190.00,0.81
8188.00,0.81
8186.00,0.80
8184.00,0.80
8182.00,0.80
8180.00,0.80
8178.00,0.80
8176.00,0.80
8174.00,0.81
8172.00,0.81
8170.00,0.81
8168.00,0.82
8166.00,0.82
8164.00,0.82
8162.00,0.82
8160.00,0.82
8158.00,0.82
8156.00,0.81
8154.00,0.81
8152.00,0.81
8150.00,0.81
8148.00,0.81
8146.00,0.80
8144.00,0.80
8142.00,0.80
8140.00,0.81
8138.00,0.81
8136.00,0.81
8134.00,0.81
8132.00,0.82
8130.00,0.82
8128.00,0.82
8126.00,0.82
8124.00,0.82
8122.00,0.82
8120.00,0.81
8118.00,0.81
8116.00,0.81
8114.00,0.81
8112.00,0.81
8110.00,0.81
8108.00,0.80
8106.00,0.80
8104.00,0.80
8102.00,0.80
8100.00,0.80
8098.00,0.81
8096.00,0.81
8094.00,0.81
8092.00,0.81
8090.00,0.81
8088.00,0.81
8086.00,0.81
8084.00,0.81
8082.00,0.81
8080.00,0.81
8078.00,0.81
8076.00,0.81
8074.00,0.81
8072.00,0.81
8070.00,0.81
8068.00,0.81
8066.00,0.81
8064.00,0.81
8062.00,0.81
8060.00,0.81
8058.00,0.81
8056.00,0.81
8054.00,0.81
8052.00,0.81
8050.00,0.81
8048.00,0.80
8046.00,0.80
8044.00,0.80
8042.00,0.80
8040.00,0.80
8038.00,0.80
8036.00,0.79
8034.00,0.79
8032.00,0.79
8030.00,0.80
8028.00,0.80
8026.00,0.80
8024.00,0.80
8022.00,0.81
8020.00,0.81
8018.00,0.81
8016.00,0.81
8014.00,0.81
8012.00,0.81
8010.00,0.80
8008.00,0.80
8006.00,0.80
8004.00,0.80
8002.00,0.81
8000.00,0.81
7998.00,0.81
7996.00,0.81
7994.00,0.81
7992.00,0.82
7990.00,0.82
7988.00,0.82
7986.00,0.82
7984.00,0.82
7982.00,0.82
7980.00,0.82
7978.00,0.82
7976.00,0.82
7974.00,0.82
7972.00,0.82
7970.00,0.82
7968.00,0.82
7966.00,0.82
7964.00,0.82
7962.00,0.82
7960.00,0.82
7958.00,0.82
7956.00,0.82
7954.00,0.82
7952.00,0.82
7950.00,0.82
7948.00,0.81
7946.00,0.81
7944.00,0.81
7942.00,0.81
7940.00,0.81
7938.00,0.80
7936.00,0.80
7934.00,0.80
7932.00,0.80
7930.00,0.80
7928.00,0.81
7926.00,0.81
7924.00,0.81
7922.00,0.81
7920.00,0.82
7918.00,0.82
7916.00,0.82
7914.00,0.82
7912.00,0.81
7910.00,0.81
7908.00,0.81
7906.00,0.81
7904.00,0.81
7902.00,0.81
7900.00,0.81
7898.00,0.81
7896.00,0.81
7894.00,0.81
7892.00,0.81
7890.00,0.81
7888.00,0.82
7886.00,0.82
7884.00,0.81
7882.00,0.81
7880.00,0.81
7878.00,0.81
7876.00,0.81
7874.00,0.81
7872.00,0.81
7870.00,0.81
7868.00,0.82
7866.00,0.82
7864.00,0.82
7862.00,0.82
7860.00,0.82
7858.00,0.82
7856.00,0.82
7854.00,0.82
7852.00,0.82
7850.00,0.82
7848.00,0.81
7846.00,0.81
7844.00,0.81
7842.00,0.81
7840.00,0.81
7838.00,0.81
7836.00,0.81
7834.00,0.81
7832.00,0.82
7830.00,0.82
7828.00,0.82
7826.00,0.82
7824.00,0.82
7822.00,0.82
7820.00,0.82
7818.00,0.82
7816.00,0.82
7814.00,0.81
7812.00,0.81
7810.00,0.81
7808.00,0.81
7806.00,0.81
7804.00,0.81
7802.00,0.81
7800.00,0.81
7798.00,0.81
7796.00,0.82
7794.00,0.82
7792.00,0.82
7790.00,0.82
7788.00,0.81
7786.00,0.81
7784.00,0.81
7782.00,0.81
7780.00,0.81
7778.00,0.81
7776.00,0.81
7774.00,0.81
7772.00,0.81
7770.00,0.81
7768.00,0.81
7766.00,0.81
7764.00,0.81
7762.00,0.81
7760.00,0.81
7758.00,0.81
7756.00,0.81
7754.00,0.81
7752.00,0.81
7750.00,0.81
7748.00,0.81
7746.00,0.81
7744.00,0.81
7742.00,0.81
7740.00,0.81
7738.00,0.81
7736.00,0.81
7734.00,0.82
7732.00,0.82
7730.00,0.82
7728.00,0.82
7726.00,0.82
7724.00,0.82
7722.00,0.82
7720.00,0.82
7718.00,0.82
7716.00,0.82
7714.00,0.82
7712.00,0.82
7710.00,0.82
7708.00,0.82
7706.00,0.82
7704.00,0.82
7702.00,0.82
7700.00,0.82
7698.00,0.82
7696.00,0.81
7694.00,0.81
7692.00,0.81
7690.00,0.81
7688.00,0.81
7686.00,0.81
7684.00,0.82
7682.00,0.82
7680.00,0.82
7678.00,0.82
7676.00,0.82
7674.00,0.82
7672.00,0.82
7670.00,0.82
7668.00,0.82
7666.00,0.82
7664.00,0.82
7662.00,0.81
7660.00,0.81
7658.00,0.81
7656.00,0.82
7654.00,0.82
7652.00,0.82
7650.00,0.82
7648.00,0.82
7646.00,0.82
7644.00,0.82
7642.00,0.82
7640.00,0.82
7638.00,0.82
7636.00,0.82
7634.00,0.82
7632.00,0.82
7630.00,0.82
7628.00,0.82
7626.00,0.82
7624.00,0.82
7622.00,0.82
7620.00,0.82
7618.00,0.82
7616.00,0.82
7614.00,0.82
7612.00,0.82
7610.00,0.82
7608.00,0.82
7606.00,0.82
7604.00,0.82
7602.00,0.82
7600.00,0.82
7598.00,0.82
7596.00,0.82
7594.00,0.82
7592.00,0.82
7590.00,0.82
7588.00,0.81
7586.00,0.81
7584.00,0.81
7582.00,0.81
7580.00,0.81
7578.00,0.81
7576.00,0.81
7574.00,0.81
7572.00,0.81
7570.00,0.81
7568.00,0.81
7566.00,0.81
7564.00,0.81
7562.00,0.81
7560.00,0.81
7558.00,0.81
7556.00,0.81
7554.00,0.81
7552.00,0.81
7550.00,0.81
7548.00,0.81
7546.00,0.81
7544.00,0.81
7542.00,0.81
7540.00,0.81
7538.00,0.82
7536.00,0.82
7534.00,0.82
7532.00,0.82
7530.00,0.82
7528.00,0.82
7526.00,0.82
7524.00,0.82
7522.00,0.82
7520.00,0.82
7518.00,0.82
7516.00,0.82
7514.00,0.82
7512.00,0.82
7510.00,0.82
7508.00,0.82
7506.00,0.82
7504.00,0.82
7502.00,0.82
7500.00,0.82
7498.00,0.82
7496.00,0.82
7494.00,0.82
7492.00,0.83
7490.00,0.82
7488.00,0.82
7486.00,0.82
7484.00,0.82
7482.00,0.82
7480.00,0.82
7478.00,0.81
7476.00,0.81
7474.00,0.81
7472.00,0.81
7470.00,0.81
7468.00,0.81
7466.00,0.81
7464.00,0.81
7462.00,0.81
7460.00,0.81
7458.00,0.81
7456.00,0.81
7454.00,0.81
7452.00,0.81
7450.00,0.81
7448.00,0.81
7446.00,0.81
7444.00,0.81
7442.00,0.81
7440.00,0.81
7438.00,0.81
7436.00,0.81
7434.00,0.81
7432.00,0.81
7430.00,0.81
7428.00,0.81
7426.00,0.81
7424.00,0.81
7422.00,0.81
7420.00,0.81
7418.00,0.81
7416.00,0.81
7414.00,0.81
7412.00,0.81
7410.00,0.81
7408.00,0.81
7406.00,0.81
7404.00,0.81
7402.00,0.81
7400.00,0.81
7398.00,0.81
7396.00,0.81
7394.00,0.81
7392.00,0.81
7390.00,0.81
7388.00,0.81
7386.00,0.81
7384.00,0.81
7382.00,0.81
7380.00,0.81
7378.00,0.81
7376.00,0.81
7374.00,0.81
7372.00,0.81
7370.00,0.81
7368.00,0.81
7366.00,0.81
7364.00,0.81
7362.00,0.81
7360.00,0.81
7358.00,0.81
7356.00,0.81
7354.00,0.81
7352.00,0.80
7350.00,0.80
7348.00,0.80
7346.00,0.80
7344.00,0.80
7342.00,0.80
7340.00,0.80
7338.00,0.80
7336.00,0.80
7334.00,0.79
7332.00,0.79
7330.00,0.79
7328.00,0.80
7326.00,0.80
7324.00,0.80
7322.00,0.80
7320.00,0.80
7318.00,0.81
7316.00,0.81
7314.00,0.81
7312.00,0.81
7310.00,0.81
7308.00,0.80
7306.00,0.80
7304.00,0.80
7302.00,0.80
7300.00,0.80
7298.00,0.80
7296.00,0.80
7294.00,0.80
7292.00,0.80
7290.00,0.80
7288.00,0.80
7286.00,0.80
7284.00,0.80
7282.00,0.80
7280.00,0.80
7278.00,0.80
7276.00,0.80
7274.00,0.80
7272.00,0.80
7270.00,0.80
7268.00,0.80
7266.00,0.80
7264.00,0.80
7262.00,0.80
7260.00,0.80
7258.00,0.80
7256.00,0.80
7254.00,0.80
7252.00,0.80
7250.00,0.80
7248.00,0.80
7246.00,0.80
7244.00,0.80
7242.00,0.80
7240.00,0.80
7238.00,0.80
7236.00,0.80
7234.00,0.80
7232.00,0.80
7230.00,0.80
7228.00,0.80
7226.00,0.80
7224.00,0.80
7222.00,0.80
7220.00,0.80
7218.00,0.80
7216.00,0.80
7214.00,0.80
7212.00,0.80
7210.00,0.79
7208.00,0.79
7206.00,0.79
7204.00,0.79
7202.00,0.79
7200.00,0.79
7198.00,0.79
7196.00,0.79
7194.00,0.79
7192.00,0.79
7190.00,0.79
7188.00,0.79
7186.00,0.79
7184.00,0.79
7182.00,0.79
7180.00,0.79
7178.00,0.79
7176.00,0.79
7174.00,0.78
7172.00,0.78
7170.00,0.78
7168.00,0.78
7166.00,0.78
7164.00,0.78
7162.00,0.78
7160.00,0.78
7158.00,0.78
7156.00,0.78
7154.00,0.78
7152.00,0.78
7150.00,0.78
7148.00,0.78
7146.00,0.78
7144.00,0.78
7142.00,0.78
7140.00,0.78
7138.00,0.77
7136.00,0.77
7134.00,0.77
7132.00,0.77
7130.00,0.77
7128.00,0.77
7126.00,0.77
7124.00,0.77
7122.00,0.77
7120.00,0.77
7118.00,0.77
7116.00,0.77
7114.00,0.77
7112.00,0.77
7110.00,0.77
7108.00,0.77
7106.00,0.77
7104.00,0.76
7102.00,0.76
7100.00,0.76
7098.00,0.76
7096.00,0.76
7094.00,0.76
7092.00,0.76
7090.00,0.76
7088.00,0.76
7086.00,0.76
7084.00,0.76
7082.00,0.76
7080.00,0.76
7078.00,0.76
7076.00,0.76
7074.00,0.76
7072.00,0.75
7070.00,0.75
7068.00,0.75
7066.00,0.75
7064.00,0.75
7062.00,0.75
7060.00,0.75
7058.00,0.75
7056.00,0.76
7054.00,0.76
7052.00,0.76
7050.00,0.76
7048.00,0.76
7046.00,0.76
7044.00,0.76
7042.00,0.76
7040.00,0.76
7038.00,0.76
7036.00,0.76
7034.00,0.76
7032.00,0.76
7030.00,0.76
7028.00,0.76
7026.00,0.76
7024.00,0.76
7022.00,0.76
7020.00,0.76
7018.00,0.76
7016.00,0.76
7014.00,0.76
7012.00,0.76
7010.00,0.75
7008.00,0.75
7006.00,0.75
7004.00,0.75
7002.00,0.75
7000.00,0.75
6998.00,0.75
6996.00,0.75
6994.00,0.75
6992.00,0.75
6990.00,0.76
6988.00,0.76
6986.00,0.76
6984.00,0.76
6982.00,0.76
6980.00,0.76
6978.00,0.76
6976.00,0.76
6974.00,0.76
6972.00,0.76
6970.00,0.76
6968.00,0.76
6966.00,0.76
6964.00,0.76
6962.00,0.75
6960.00,0.75
6958.00,0.75
6956.00,0.75
6954.00,0.75
6952.00,0.75
6950.00,0.75
6948.00,0.75
6946.00,0.75
6944.00,0.76
6942.00,0.76
6940.00,0.76
6938.00,0.76
6936.00,0.76
6934.00,0.75
6932.00,0.75
6930.00,0.75
6928.00,0.75
6926.00,0.75
6924.00,0.75
6922.00,0.75
6920.00,0.75
6918.00,0.75
6916.00,0.75
6914.00,0.75
6912.00,0.75
6910.00,0.75
6908.00,0.75
6906.00,0.75
6904.00,0.75
6902.00,0.75
6900.00,0.75
6898.00,0.75
6896.00,0.75
6894.00,0.75
6892.00,0.75
6890.00,0.75
6888.00,0.75
6886.00,0.75
6884.00,0.75
6882.00,0.75
6880.00,0.75
6878.00,0.75
6876.00,0.75
6874.00,0.75
6872.00,0.75
6870.00,0.75
6868.00,0.75
6866.00,0.75
6864.00,0.75
6862.00,0.75
6860.00,0.75
6858.00,0.75
6856.00,0.75
6854.00,0.75
6852.00,0.75
6850.00,0.75
6848.00,0.75
6846.00,0.75
6844.00,0.75
6842.00,0.75
6840.00,0.75
6838.00,0.75
6836.00,0.75
6834.00,0.75
6832.00,0.75
6830.00,0.75
6828.00,0.74
6826.00,0.74
6824.00,0.74
6822.00,0.74
6820.00,0.75
6818.00,0.75
6816.00,0.75
6814.00,0.75
6812.00,0.75
6810.00,0.75
6808.00,0.75
6806.00,0.75
6804.00,0.75
6802.00,0.75
6800.00,0.75
6798.00,0.75
6796.00,0.75
6794.00,0.75
6792.00,0.75
6790.00,0.75
6788.00,0.75
6786.00,0.75
6784.00,0.75
6782.00,0.75
6780.00,0.75
6778.00,0.75
6776.00,0.75
6774.00,0.76
6772.00,0.76
6770.00,0.76
6768.00,0.76
6766.00,0.76
6764.00,0.76
6762.00,0.76
6760.00,0.76
6758.00,0.76
6756.00,0.76
6754.00,0.76
6752.00,0.76
6750.00,0.76
6748.00,0.76
6746.00,0.76
6744.00,0.76
6742.00,0.76
6740.00,0.77
6738.00,0.77
6736.00,0.77
6734.00,0.77
6732.00,0.76
6730.00,0.76
6728.00,0.76
6726.00,0.76
6724.00,0.76
6722.00,0.76
6720.00,0.76
6718.00,0.76
6716.00,0.76
6714.00,0.76
6712.00,0.76
6710.00,0.76
6708.00,0.76
6706.00,0.76
6704.00,0.76
6702.00,0.76
6700.00,0.76
6698.00,0.76
6696.00,0.76
6694.00,0.77
6692.00,0.77
6690.00,0.77
6688.00,0.77
6686.00,0.77
6684.00,0.77
6682.00,0.77
6680.00,0.77
6678.00,0.77
6676.00,0.77
6674.00,0.77
6672.00,0.77
6670.00,0.77
6668.00,0.77
6666.00,0.77
6664.00,0.77
6662.00,0.77
6660.00,0.77
6658.00,0.77
6656.00,0.77
6654.00,0.77
6652.00,0.77
6650.00,0.77
6648.00,0.77
6646.00,0.77
6644.00,0.77
6642.00,0.77
6640.00,0.77
6638.00,0.77
6636.00,0.77
6634.00,0.77
6632.00,0.77
6630.00,0.77
6628.00,0.77
6626.00,0.77
6624.00,0.77
6622.00,0.77
6620.00,0.77
6618.00,0.77
6616.00,0.77
6614.00,0.77
6612.00,0.77
6610.00,0.77
6608.00,0.77
6606.00,0.77
6604.00,0.77
6602.00,0.77
6600.00,0.77
6598.00,0.77
6596.00,0.77
6594.00,0.77
6592.00,0.77
6590.00,0.77
6588.00,0.77
6586.00,0.77
6584.00,0.77
6582.00,0.77
6580.00,0.77
6578.00,0.77
6576.00,0.77
6574.00,0.77
6572.00,0.77
6570.00,0.77
6568.00,0.77
6566.00,0.77
6564.00,0.77
6562.00,0.77
6560.00,0.77
6558.00,0.77
6556.00,0.77
6554.00,0.77
6552.00,0.77
6550.00,0.77
6548.00,0.77
6546.00,0.77
6544.00,0.77
6542.00,0.77
6540.00,0.78
6538.00,0.78
6536.00,0.78
6534.00,0.78
6532.00,0.78
6530.00,0.78
6528.00,0.78
6526.00,0.78
6524.00,0.78
6522.00,0.78
6520.00,0.78
6518.00,0.78
6516.00,0.78
6514.00,0.78
6512.00,0.78
6510.00,0.78
6508.00,0.78
6506.00,0.78
6504.00,0.78
6502.00,0.78
6500.00,0.78
6498.00,0.78
6496.00,0.78
6494.00,0.78
6492.00,0.78
6490.00,0.78
6488.00,0.78
6486.00,0.78
6484.00,0.78
6482.00,0.78
6480.00,0.78
6478.00,0.78
6476.00,0.78
6474.00,0.78
6472.00,0.78
6470.00,0.78
6468.00,0.79
6466.00,0.79
6464.00,0.79
6462.00,0.79
6460.00,0.79
6458.00,0.78
6456.00,0.78
6454.00,0.78
6452.00,0.78
6450.00,0.78
6448.00,0.78
6446.00,0.78
6444.00,0.78
6442.00,0.78
6440.00,0.78
6438.00,0.78
6436.00,0.79
6434.00,0.79
6432.00,0.79
6430.00,0.79
6428.00,0.79
6426.00,0.79
6424.00,0.79
6422.00,0.79
6420.00,0.79
6418.00,0.79
6416.00,0.79
6414.00,0.79
6412.00,0.79
6410.00,0.79
6408.00,0.79
6406.00,0.79
6404.00,0.79
6402.00,0.79
6400.00,0.79
6398.00,0.79
6396.00,0.79
6394.00,0.79
6392.00,0.79
6390.00,0.79
6388.00,0.79
6386.00,0.79
6384.00,0.79
6382.00,0.79
6380.00,0.79
6378.00,0.79
6376.00,0.79
6374.00,0.79
6372.00,0.79
6370.00,0.79
6368.00,0.79
6366.00,0.79
6364.00,0.79
6362.00,0.79
6360.00,0.79
6358.00,0.79
6356.00,0.79
6354.00,0.79
6352.00,0.79
6350.00,0.79
6348.00,0.79
6346.00,0.79
6344.00,0.79
6342.00,0.79
6340.00,0.79
6338.00,0.79
6336.00,0.79
6334.00,0.79
6332.00,0.79
6330.00,0.79
6328.00,0.79
6326.00,0.79
6324.00,0.79
6322.00,0.79
6320.00,0.79
6318.00,0.79
6316.00,0.79
6314.00,0.79
6312.00,0.79
6310.00,0.79
6308.00,0.79
6306.00,0.79
6304.00,0.79
6302.00,0.79
6300.00,0.79
6298.00,0.79
6296.00,0.79
6294.00,0.79
6292.00,0.79
6290.00,0.79
6288.00,0.79
6286.00,0.79
6284.00,0.79
6282.00,0.79
6280.00,0.79
6278.00,0.79
6276.00,0.79
6274.00,0.80
6272.00,0.80
6270.00,0.80
6268.00,0.80
6266.00,0.80
6264.00,0.80
6262.00,0.80
6260.00,0.80
6258.00,0.80
6256.00,0.80
6254.00,0.80
6252.00,0.80
6250.00,0.80
6248.00,0.80
6246.00,0.80
6244.00,0.80
6242.00,0.80
6240.00,0.80
6238.00,0.80
6236.00,0.80
6234.00,0.80
6232.00,0.80
6230.00,0.80
6228.00,0.80
6226.00,0.80
6224.00,0.80
6222.00,0.80
6220.00,0.80
6218.00,0.80
6216.00,0.80
6214.00,0.80
6212.00,0.80
6210.00,0.80
6208.00,0.80
6206.00,0.80
6204.00,0.80
6202.00,0.80
6200.00,0.80
6198.00,0.80
6196.00,0.80
6194.00,0.80
6192.00,0.80
6190.00,0.80
6188.00,0.80
6186.00,0.80
6184.00,0.80
6182.00,0.80
6180.00,0.80
6178.00,0.80
6176.00,0.80
6174.00,0.80
6172.00,0.81
6170.00,0.81
6168.00,0.81
6166.00,0.81
6164.00,0.81
6162.00,0.81
6160.00,0.81
6158.00,0.81
6156.00,0.81
6154.00,0.81
6152.00,0.81
6150.00,0.81
6148.00,0.81
6146.00,0.81
6144.00,0.81
6142.00,0.81
6140.00,0.81
6138.00,0.81
6136.00,0.81
6134.00,0.81
6132.00,0.81
6130.00,0.81
6128.00,0.81
6126.00,0.81
6124.00,0.81
6122.00,0.81
6120.00,0.81
6118.00,0.81
6116.00,0.81
6114.00,0.81
6112.00,0.81
6110.00,0.81
6108.00,0.81
6106.00,0.81
6104.00,0.81
6102.00,0.81
6100.00,0.81
6098.00,0.82
6096.00,0.81
6094.00,0.81
6092.00,0.81
6090.00,0.81
6088.00,0.81
6086.00,0.82
6084.00,0.82
6082.00,0.82
6080.00,0.82
6078.00,0.82
6076.00,0.82
6074.00,0.82
6072.00,0.82
6070.00,0.82
6068.00,0.82
6066.00,0.82
6064.00,0.82
6062.00,0.82
6060.00,0.82
6058.00,0.82
6056.00,0.82
6054.00,0.82
6052.00,0.82
6050.00,0.82
6048.00,0.82
6046.00,0.82
6044.00,0.82
6042.00,0.82
6040.00,0.82
6038.00,0.82
6036.00,0.82
6034.00,0.82
6032.00,0.82
6030.00,0.82
6028.00,0.82
6026.00,0.82
6024.00,0.82
6022.00,0.82
6020.00,0.82
6018.00,0.82
6016.00,0.82
6014.00,0.82
6012.00,0.82
6010.00,0.82
6008.00,0.82
6006.00,0.82
6004.00,0.82
6002.00,0.82
6000.00,0.82
5998.00,0.82
5996.00,0.82
5994.00,0.82
5992.00,0.82
5990.00,0.82
5988.00,0.82
5986.00,0.82
5984.00,0.82
5982.00,0.82
5980.00,0.82
5978.00,0.82
5976.00,0.82
5974.00,0.82
5972.00,0.82
5970.00,0.81
5968.00,0.81
5966.00,0.81
5964.00,0.81
5962.00,0.81
5960.00,0.80
5958.00,0.80
5956.00,0.80
5954.00,0.80
5952.00,0.80
5950.00,0.80
5948.00,0.80
5946.00,0.80
5944.00,0.80
5942.00,0.80
5940.00,0.80
5938.00,0.80
5936.00,0.80
5934.00,0.80
5932.00,0.80
5930.00,0.80
5928.00,0.79
5926.00,0.79
5924.00,0.79
5922.00,0.79
5920.00,0.79
5918.00,0.79
5916.00,0.79
5914.00,0.79
5912.00,0.79
5910.00,0.79
5908.00,0.79
5906.00,0.79
5904.00,0.79
5902.00,0.79
5900.00,0.79
5898.00,0.79
5896.00,0.79
5894.00,0.79
5892.00,0.79
5890.00,0.79
5888.00,0.79
5886.00,0.79
5884.00,0.79
5882.00,0.79
5880.00,0.79
5878.00,0.79
5876.00,0.79
5874.00,0.79
5872.00,0.79
5870.00,0.80
5868.00,0.80
5866.00,0.80
5864.00,0.80
5862.00,0.80
5860.00,0.80
5858.00,0.80
5856.00,0.80
5854.00,0.80
5852.00,0.80
5850.00,0.80
5848.00,0.80
5846.00,0.80
5844.00,0.80
5842.00,0.80
5840.00,0.80
5838.00,0.80
5836.00,0.80
5834.00,0.80
5832.00,0.80
5830.00,0.80
5828.00,0.80
5826.00,0.80
5824.00,0.80
5822.00,0.80
5820.00,0.80
5818.00,0.80
5816.00,0.80
5814.00,0.80
5812.00,0.80
5810.00,0.80
5808.00,0.80
5806.00,0.80
5804.00,0.80
5802.00,0.80
5800.00,0.80
5798.00,0.80
5796.00,0.80
5794.00,0.80
5792.00,0.80
5790.00,0.80
5788.00,0.80
5786.00,0.80
5784.00,0.80
5782.00,0.80
5780.00,0.80
5778.00,0.80
5776.00,0.80
5774.00,0.80
5772.00,0.80
5770.00,0.80
5768.00,0.80
5766.00,0.80
5764.00,0.80
5762.00,0.80
5760.00,0.80
5758.00,0.80
5756.00,0.80
5754.00,0.80
5752.00,0.80
5750.00,0.80
5748.00,0.80
5746.00,0.80
5744.00,0.80
5742.00,0.80
5740.00,0.80
5738.00,0.80
5736.00,0.80
5734.00,0.80
5732.00,0.81
5730.00,0.81
5728.00,0.81
5726.00,0.81
5724.00,0.81
5722.00,0.81
5720.00,0.81
5718.00,0.81
5716.00,0.81
5714.00,0.81
5712.00,0.81
5710.00,0.81
5708.00,0.81
5706.00,0.80
5704.00,0.80
5702.00,0.80
5700.00,0.80
5698.00,0.80
5696.00,0.80
5694.00,0.80
5692.00,0.80
5690.00,0.80
5688.00,0.80
5686.00,0.80
5684.00,0.80
5682.00,0.81
5680.00,0.81
5678.00,0.81
5676.00,0.81
5674.00,0.81
5672.00,0.81
5670.00,0.81
5668.00,0.81
5666.00,0.81
5664.00,0.81
5662.00,0.81
5660.00,0.81
5658.00,0.81
5656.00,0.81
5654.00,0.81
5652.00,0.81
5650.00,0.81
5648.00,0.81
5646.00,0.81
5644.00,0.81
5642.00,0.81
5640.00,0.81
5638.00,0.81
5636.00,0.81
5634.00,0.81
5632.00,0.81
5630.00,0.81
5628.00,0.81
5626.00,0.81
5624.00,0.81
5622.00,0.81
5620.00,0.81
5618.00,0.82
5616.00,0.82
5614.00,0.82
5612.00,0.82
5610.00,0.82
5608.00,0.82
5606.00,0.82
5604.00,0.82
5602.00,0.82
5600.00,0.82
5598.00,0.82
5596.00,0.82
5594.00,0.82
5592.00,0.82
5590.00,0.82
5588.00,0.82
5586.00,0.82
5584.00,0.82
5582.00,0.82
5580.00,0.82
5578.00,0.82
5576.00,0.82
5574.00,0.82
5572.00,0.82
5570.00,0.82
5568.00,0.82
5566.00,0.82
5564.00,0.82
5562.00,0.82
5560.00,0.82
5558.00,0.82
5556.00,0.82
5554.00,0.82
5552.00,0.82
5550.00,0.82
5548.00,0.82
5546.00,0.82
5544.00,0.82
5542.00,0.82
5540.00,0.82
5538.00,0.82
5536.00,0.82
5534.00,0.82
5532.00,0.82
5530.00,0.82
5528.00,0.82
5526.00,0.82
5524.00,0.82
5522.00,0.82
5520.00,0.82
5518.00,0.83
5516.00,0.83
5514.00,0.83
5512.00,0.83
5510.00,0.83
5508.00,0.83
5506.00,0.83
5504.00,0.83
5502.00,0.82
5500.00,0.82
5498.00,0.82
5496.00,0.82
5494.00,0.82
5492.00,0.82
5490.00,0.82
5488.00,0.82
5486.00,0.82
5484.00,0.82
5482.00,0.82
5480.00,0.82
5478.00,0.82
5476.00,0.82
5474.00,0.82
5472.00,0.82
5470.00,0.82
5468.00,0.82
5466.00,0.82
5464.00,0.82
5462.00,0.82
5460.00,0.82
5458.00,0.83
5456.00,0.83
5454.00,0.83
5452.00,0.83
5450.00,0.83
5448.00,0.83
5446.00,0.82
5444.00,0.82
5442.00,0.82
5440.00,0.82
5438.00,0.82
5436.00,0.82
5434.00,0.82
5432.00,0.83
5430.00,0.83
5428.00,0.83
5426.00,0.83
5424.00,0.83
5422.00,0.83
5420.00,0.83
5418.00,0.83
5416.00,0.83
5414.00,0.83
5412.00,0.83
5410.00,0.83
5408.00,0.83
5406.00,0.82
5404.00,0.83
5402.00,0.83
5400.00,0.83
5398.00,0.83
5396.00,0.83
5394.00,0.83
5392.00,0.83
5390.00,0.83
5388.00,0.83
5386.00,0.83
5384.00,0.83
5382.00,0.83
5380.00,0.83
5378.00,0.83
5376.00,0.83
5374.00,0.83
5372.00,0.83
5370.00,0.83
5368.00,0.83
5366.00,0.83
5364.00,0.83
5362.00,0.83
5360.00,0.83
5358.00,0.82
5356.00,0.82
5354.00,0.82
5352.00,0.82
5350.00,0.82
5348.00,0.82
5346.00,0.82
5344.00,0.82
5342.00,0.81
5340.00,0.81
5338.00,0.81
5336.00,0.81
5334.00,0.81
5332.00,0.81
5330.00,0.80
5328.00,0.80
5326.00,0.80
5324.00,0.80
5322.00,0.80
5320.00,0.80
5318.00,0.79
5316.00,0.79
5314.00,0.79
5312.00,0.79
5310.00,0.78
5308.00,0.78
5306.00,0.78
5304.00,0.77
5302.00,0.77
5300.00,0.77
5298.00,0.77
5296.00,0.77
5294.00,0.76
5292.00,0.76
5290.00,0.76
5288.00,0.76
5286.00,0.75
5284.00,0.75
5282.00,0.75
5280.00,0.75
5278.00,0.75
5276.00,0.74
5274.00,0.74
5272.00,0.74
5270.00,0.74
5268.00,0.74
5266.00,0.73
5264.00,0.73
5262.00,0.73
5260.00,0.73
5258.00,0.73
5256.00,0.72
5254.00,0.72
5252.00,0.72
5250.00,0.72
5248.00,0.72
5246.00,0.72
5244.00,0.72
5242.00,0.72
5240.00,0.72
5238.00,0.72
5236.00,0.71
5234.00,0.71
5232.00,0.71
5230.00,0.71
5228.00,0.71
5226.00,0.71
5224.00,0.70
5222.00,0.70
5220.00,0.70
5218.00,0.70
5216.00,0.70
5214.00,0.70
5212.00,0.70
5210.00,0.70
5208.00,0.70
5206.00,0.70
5204.00,0.70
5202.00,0.70
5200.00,0.69
5198.00,0.69
5196.00,0.69
5194.00,0.69
5192.00,0.69
5190.00,0.69
5188.00,0.69
5186.00,0.69
5184.00,0.69
5182.00,0.69
5180.00,0.69
5178.00,0.69
5176.00,0.69
5174.00,0.69
5172.00,0.69
5170.00,0.69
5168.00,0.69
5166.00,0.69
5164.00,0.69
5162.00,0.69
5160.00,0.69
5158.00,0.69
5156.00,0.69
5154.00,0.69
5152.00,0.69
5150.00,0.69
5148.00,0.69
5146.00,0.70
5144.00,0.70
5142.00,0.70
5140.00,0.70
5138.00,0.70
5136.00,0.70
5134.00,0.70
5132.00,0.70
5130.00,0.70
5128.00,0.70
5126.00,0.71
5124.00,0.71
5122.00,0.71
5120.00,0.71
5118.00,0.71
5116.00,0.71
5114.00,0.71
5112.00,0.71
5110.00,0.71
5108.00,0.71
5106.00,0.71
5104.00,0.71
5102.00,0.71
5100.00,0.72
5098.00,0.72
5096.00,0.72
5094.00,0.72
5092.00,0.72
5090.00,0.72
5088.00,0.72
5086.00,0.72
5084.00,0.72
5082.00,0.72
5080.00,0.72
5078.00,0.72
5076.00,0.73
5074.00,0.73
5072.00,0.73
5070.00,0.73
5068.00,0.73
5066.00,0.73
5064.00,0.74
5062.00,0.74
5060.00,0.74
5058.00,0.74
5056.00,0.74
5054.00,0.74
5052.00,0.74
5050.00,0.74
5048.00,0.74
5046.00,0.74
5044.00,0.74
5042.00,0.74
5040.00,0.74
5038.00,0.74
5036.00,0.74
5034.00,0.75
5032.00,0.75
5030.00,0.75
5028.00,0.75
5026.00,0.75
5024.00,0.75
5022.00,0.75
5020.00,0.76
5018.00,0.76
5016.00,0.76
5014.00,0.76
5012.00,0.76
5010.00,0.76
5008.00,0.76
5006.00,0.76
5004.00,0.76
5002.00,0.76
5000.00,0.77
4998.00,0.77
4996.00,0.77
4994.00,0.77
4992.00,0.77
4990.00,0.77
4988.00,0.77
4986.00,0.77
4984.00,0.77
4982.00,0.77
4980.00,0.77
4978.00,0.77
4976.00,0.77
4974.00,0.77
4972.00,0.77
4970.00,0.77
4968.00,0.77
4966.00,0.78
4964.00,0.78
4962.00,0.78
4960.00,0.78
4958.00,0.78
4956.00,0.78
4954.00,0.78
4952.00,0.78
4950.00,0.78
4948.00,0.78
4946.00,0.78
4944.00,0.78
4942.00,0.78
4940.00,0.78
4938.00,0.78
4936.00,0.78
4934.00,0.78
4932.00,0.78
4930.00,0.78
4928.00,0.78
4926.00,0.78
4924.00,0.78
4922.00,0.78
4920.00,0.78
4918.00,0.78
4916.00,0.78
4914.00,0.78
4912.00,0.79
4910.00,0.79
4908.00,0.79
4906.00,0.79
4904.00,0.78
4902.00,0.78
4900.00,0.78
4898.00,0.78
4896.00,0.78
4894.00,0.78
4892.00,0.78
4890.00,0.78
4888.00,0.78
4886.00,0.78
4884.00,0.78
4882.00,0.79
4880.00,0.79
4878.00,0.79
4876.00,0.79
4874.00,0.79
4872.00,0.79
4870.00,0.79
4868.00,0.79
4866.00,0.79
4864.00,0.79
4862.00,0.79
4860.00,0.79
4858.00,0.79
4856.00,0.79
4854.00,0.79
4852.00,0.79
4850.00,0.79
4848.00,0.79
4846.00,0.79
4844.00,0.79
4842.00,0.79
4840.00,0.79
4838.00,0.79
4836.00,0.79
4834.00,0.79
4832.00,0.79
4830.00,0.79
4828.00,0.79
4826.00,0.79
4824.00,0.79
4822.00,0.79
4820.00,0.79
4818.00,0.79
4816.00,0.79
4814.00,0.79
4812.00,0.79
4810.00,0.79
4808.00,0.79
4806.00,0.80
4804.00,0.80
4802.00,0.80
4800.00,0.80
4798.00,0.80
4796.00,0.80
4794.00,0.80
4792.00,0.80
4790.00,0.80
4788.00,0.80
4786.00,0.80
4784.00,0.80
4782.00,0.80
4780.00,0.80
4778.00,0.80
4776.00,0.80
4774.00,0.80
4772.00,0.80
4770.00,0.80
4768.00,0.80
4766.00,0.80
4764.00,0.80
4762.00,0.80
4760.00,0.80
4758.00,0.80
4756.00,0.81
4754.00,0.81
4752.00,0.81
4750.00,0.81
4748.00,0.81
4746.00,0.81
4744.00,0.81
4742.00,0.81
4740.00,0.81
4738.00,0.81
4736.00,0.81
4734.00,0.81
4732.00,0.81
4730.00,0.81
4728.00,0.81
4726.00,0.81
4724.00,0.81
4722.00,0.81
4720.00,0.81
4718.00,0.81
4716.00,0.81
4714.00,0.81
4712.00,0.81
4710.00,0.81
4708.00,0.81
4706.00,0.82
4704.00,0.82
4702.00,0.82
4700.00,0.82
4698.00,0.82
4696.00,0.82
4694.00,0.82
4692.00,0.82
4690.00,0.82
4688.00,0.82
4686.00,0.82
4684.00,0.82
4682.00,0.82
4680.00,0.82
4678.00,0.82
4676.00,0.82
4674.00,0.82
4672.00,0.82
4670.00,0.82
4668.00,0.82
4666.00,0.82
4664.00,0.82
4662.00,0.82
4660.00,0.82
4658.00,0.82
4656.00,0.82
4654.00,0.82
4652.00,0.82
4650.00,0.82
4648.00,0.82
4646.00,0.82
4644.00,0.82
4642.00,0.82
4640.00,0.82
4638.00,0.82
4636.00,0.82
4634.00,0.82
4632.00,0.82
4630.00,0.82
4628.00,0.82
4626.00,0.82
4624.00,0.82
4622.00,0.82
4620.00,0.82
4618.00,0.82
4616.00,0.83
4614.00,0.83
4612.00,0.83
4610.00,0.83
4608.00,0.83
4606.00,0.83
4604.00,0.83
4602.00,0.83
4600.00,0.83
4598.00,0.83
4596.00,0.83
4594.00,0.83
4592.00,0.83
4590.00,0.83
4588.00,0.83
4586.00,0.83
4584.00,0.83
4582.00,0.83
4580.00,0.83
4578.00,0.83
4576.00,0.83
4574.00,0.83
4572.00,0.83
4570.00,0.83
4568.00,0.83
4566.00,0.83
4564.00,0.83
4562.00,0.83
4560.00,0.83
4558.00,0.83
4556.00,0.83
4554.00,0.83
4552.00,0.82
4550.00,0.82
4548.00,0.82
4546.00,0.82
4544.00,0.82
4542.00,0.82
4540.00,0.82
4538.00,0.82
4536.00,0.82
4534.00,0.82
4532.00,0.82
4530.00,0.82
4528.00,0.82
4526.00,0.82
4524.00,0.82
4522.00,0.82
4520.00,0.82
4518.00,0.82
4516.00,0.82
4514.00,0.82
4512.00,0.82
4510.00,0.83
4508.00,0.83
4506.00,0.83
4504.00,0.83
4502.00,0.83
4500.00,0.83
4498.00,0.83
4496.00,0.83
4494.00,0.83
4492.00,0.83
4490.00,0.83
4488.00,0.83
4486.00,0.83
4484.00,0.83
4482.00,0.83
4480.00,0.83
4478.00,0.82
4476.00,0.82
4474.00,0.82
4472.00,0.82
4470.00,0.82
4468.00,0.82
4466.00,0.82
4464.00,0.82
4462.00,0.82
4460.00,0.82
4458.00,0.82
4456.00,0.82
4454.00,0.82
4452.00,0.81
4450.00,0.81
4448.00,0.81
4446.00,0.81
4444.00,0.81
4442.00,0.81
4440.00,0.80
4438.00,0.80
4436.00,0.80
4434.00,0.80
4432.00,0.79
4430.00,0.79
4428.00,0.78
4426.00,0.78
4424.00,0.78
4422.00,0.77
4420.00,0.77
4418.00,0.76
4416.00,0.76
4414.00,0.76
4412.00,0.76
4410.00,0.76
4408.00,0.76
4406.00,0.76
4404.00,0.76
4402.00,0.76
4400.00,0.77
4398.00,0.77
4396.00,0.77
4394.00,0.77
4392.00,0.77
4390.00,0.77
4388.00,0.77
4386.00,0.78
4384.00,0.78
4382.00,0.78
4380.00,0.78
4378.00,0.78
4376.00,0.79
4374.00,0.79
4372.00,0.79
4370.00,0.79
4368.00,0.79
4366.00,0.79
4364.00,0.79
4362.00,0.79
4360.00,0.78
4358.00,0.78
4356.00,0.78
4354.00,0.78
4352.00,0.78
4350.00,0.77
4348.00,0.77
4346.00,0.77
4344.00,0.77
4342.00,0.77
4340.00,0.77
4338.00,0.77
4336.00,0.77
4334.00,0.77
4332.00,0.77
4330.00,0.77
4328.00,0.77
4326.00,0.78
4324.00,0.78
4322.00,0.78
4320.00,0.79
4318.00,0.79
4316.00,0.79
4314.00,0.79
4312.00,0.79
4310.00,0.80
4308.00,0.80
4306.00,0.80
4304.00,0.81
4302.00,0.81
4300.00,0.81
4298.00,0.81
4296.00,0.81
4294.00,0.82
4292.00,0.82
4290.00,0.82
4288.00,0.82
4286.00,0.82
4284.00,0.83
4282.00,0.83
4280.00,0.83
4278.00,0.83
4276.00,0.82
4274.00,0.82
4272.00,0.82
4270.00,0.82
4268.00,0.82
4266.00,0.81
4264.00,0.81
4262.00,0.81
4260.00,0.81
4258.00,0.81
4256.00,0.81
4254.00,0.81
4252.00,0.81
4250.00,0.81
4248.00,0.81
4246.00,0.81
4244.00,0.82
4242.00,0.82
4240.00,0.82
4238.00,0.82
4236.00,0.82
4234.00,0.82
4232.00,0.83
4230.00,0.83
4228.00,0.83
4226.00,0.83
4224.00,0.83
4222.00,0.83
4220.00,0.83
4218.00,0.83
4216.00,0.82
4214.00,0.82
4212.00,0.82
4210.00,0.82
4208.00,0.82
4206.00,0.83
4204.00,0.83
4202.00,0.83
4200.00,0.83
4198.00,0.83
4196.00,0.83
4194.00,0.83
4192.00,0.83
4190.00,0.83
4188.00,0.83
4186.00,0.82
4184.00,0.82
4182.00,0.82
4180.00,0.82
4178.00,0.82
4176.00,0.82
4174.00,0.82
4172.00,0.82
4170.00,0.82
4168.00,0.82
4166.00,0.82
4164.00,0.82
4162.00,0.82
4160.00,0.82
4158.00,0.82
4156.00,0.83
4154.00,0.83
4152.00,0.83
4150.00,0.83
4148.00,0.83
4146.00,0.83
4144.00,0.83
4142.00,0.83
4140.00,0.83
4138.00,0.83
4136.00,0.83
4134.00,0.83
4132.00,0.83
4130.00,0.83
4128.00,0.83
4126.00,0.83
4124.00,0.83
4122.00,0.83
4120.00,0.83
4118.00,0.83
4116.00,0.83
4114.00,0.83
4112.00,0.83
4110.00,0.82
4108.00,0.82
4106.00,0.82
4104.00,0.82
4102.00,0.82
4100.00,0.82
4098.00,0.82
4096.00,0.82
4094.00,0.82
4092.00,0.82
4090.00,0.82
4088.00,0.82
4086.00,0.82
4084.00,0.81
4082.00,0.81
4080.00,0.81
4078.00,0.81
4076.00,0.81
4074.00,0.81
4072.00,0.81
4070.00,0.80
4068.00,0.80
4066.00,0.80
4064.00,0.80
4062.00,0.80
4060.00,0.80
4058.00,0.80
4056.00,0.81
4054.00,0.81
4052.00,0.81
4050.00,0.81
4048.00,0.81
4046.00,0.81
4044.00,0.81
4042.00,0.81
4040.00,0.82
4038.00,0.82
4036.00,0.82
4034.00,0.82
4032.00,0.82
4030.00,0.82
4028.00,0.82
4026.00,0.82
4024.00,0.82
4022.00,0.82
4020.00,0.82
4018.00,0.82
4016.00,0.82
4014.00,0.82
4012.00,0.82
4010.00,0.82
4008.00,0.82
4006.00,0.82
4004.00,0.82
4002.00,0.83
4000.00,0.83
