创建为新数据集,样品 1303 用户 Administrator 日期 星期六, 八月 17 2019
cm-1,%T
10000.00,0.75
9998.00,0.75
9996.00,0.75
9994.00,0.75
9992.00,0.75
9990.00,0.75
9988.00,0.75
9986.00,0.75
9984.00,0.75
9982.00,0.75
9980.00,0.75
9978.00,0.74
9976.00,0.74
9974.00,0.74
9972.00,0.74
9970.00,0.74
9968.00,0.74
9966.00,0.74
9964.00,0.74
9962.00,0.74
9960.00,0.74
9958.00,0.74
9956.00,0.74
9954.00,0.74
9952.00,0.74
9950.00,0.74
9948.00,0.74
9946.00,0.74
9944.00,0.74
9942.00,0.74
9940.00,0.74
9938.00,0.74
9936.00,0.74
9934.00,0.74
9932.00,0.74
9930.00,0.74
9928.00,0.74
9926.00,0.74
9924.00,0.74
9922.00,0.74
9920.00,0.74
9918.00,0.74
9916.00,0.74
9914.00,0.74
9912.00,0.74
9910.00,0.74
9908.00,0.74
9906.00,0.74
9904.00,0.73
9902.00,0.73
9900.00,0.73
9898.00,0.73
9896.00,0.73
9894.00,0.74
9892.00,0.74
9890.00,0.74
9888.00,0.74
9886.00,0.74
9884.00,0.74
9882.00,0.74
9880.00,0.74
9878.00,0.73
9876.00,0.73
9874.00,0.73
9872.00,0.73
9870.00,0.73
9868.00,0.73
9866.00,0.73
9864.00,0.73
9862.00,0.72
9860.00,0.72
9858.00,0.72
9856.00,0.72
9854.00,0.72
9852.00,0.72
9850.00,0.72
9848.00,0.72
9846.00,0.72
9844.00,0.72
9842.00,0.72
9840.00,0.72
9838.00,0.72
9836.00,0.72
9834.00,0.72
9832.00,0.72
9830.00,0.72
9828.00,0.72
9826.00,0.72
9824.00,0.72
9822.00,0.72
9820.00,0.72
9818.00,0.72
9816.00,0.72
9814.00,0.72
9812.00,0.72
9810.00,0.72
9808.00,0.72
9806.00,0.73
9804.00,0.73
9802.00,0.73
9800.00,0.73
9798.00,0.73
9796.00,0.73
9794.00,0.74
9792.00,0.74
9790.00,0.74
9788.00,0.74
9786.00,0.74
9784.00,0.74
9782.00,0.74
9780.00,0.74
9778.00,0.74
9776.00,0.74
9774.00,0.74
9772.00,0.74
9770.00,0.74
9768.00,0.73
9766.00,0.73
9764.00,0.73
9762.00,0.72
9760.00,0.72
9758.00,0.72
9756.00,0.71
9754.00,0.71
9752.00,0.70
9750.00,0.70
9748.00,0.69
9746.00,0.69
9744.00,0.69
9742.00,0.68
9740.00,0.68
9738.00,0.68
9736.00,0.68
9734.00,0.68
9732.00,0.68
9730.00,0.68
9728.00,0.68
9726.00,0.68
9724.00,0.68
9722.00,0.68
9720.00,0.69
9718.00,0.69
9716.00,0.69
9714.00,0.69
9712.00,0.70
9710.00,0.70
9708.00,0.70
9706.00,0.70
9704.00,0.71
9702.00,0.71
9700.00,0.71
9698.00,0.71
9696.00,0.71
9694.00,0.71
9692.00,0.71
9690.00,0.71
9688.00,0.71
9686.00,0.71
9684.00,0.71
9682.00,0.71
9680.00,0.71
9678.00,0.71
9676.00,0.71
9674.00,0.71
9672.00,0.71
9670.00,0.71
9668.00,0.71
9666.00,0.71
9664.00,0.72
9662.00,0.72
9660.00,0.72
9658.00,0.71
9656.00,0.71
9654.00,0.71
9652.00,0.71
9650.00,0.71
9648.00,0.71
9646.00,0.71
9644.00,0.71
9642.00,0.71
9640.00,0.71
9638.00,0.71
9636.00,0.70
9634.00,0.70
9632.00,0.70
9630.00,0.70
9628.00,0.70
9626.00,0.70
9624.00,0.70
9622.00,0.70
9620.00,0.70
9618.00,0.70
9616.00,0.70
9614.00,0.71
9612.00,0.71
9610.00,0.71
9608.00,0.71
9606.00,0.71
9604.00,0.71
9602.00,0.71
9600.00,0.71
9598.00,0.71
9596.00,0.71
9594.00,0.71
9592.00,0.71
9590.00,0.71
9588.00,0.71
9586.00,0.70
9584.00,0.70
9582.00,0.70
9580.00,0.70
9578.00,0.70
9576.00,0.70
9574.00,0.70
9572.00,0.70
9570.00,0.70
9568.00,0.70
9566.00,0.70
9564.00,0.70
9562.00,0.70
9560.00,0.70
9558.00,0.70
9556.00,0.70
9554.00,0.70
9552.00,0.70
9550.00,0.70
9548.00,0.70
9546.00,0.70
9544.00,0.70
9542.00,0.70
9540.00,0.70
9538.00,0.70
9536.00,0.70
9534.00,0.70
9532.00,0.70
9530.00,0.70
9528.00,0.70
9526.00,0.70
9524.00,0.70
9522.00,0.70
9520.00,0.70
9518.00,0.70
9516.00,0.70
9514.00,0.70
9512.00,0.70
9510.00,0.70
9508.00,0.70
9506.00,0.70
9504.00,0.70
9502.00,0.70
9500.00,0.70
9498.00,0.70
9496.00,0.70
9494.00,0.70
9492.00,0.70
9490.00,0.70
9488.00,0.70
9486.00,0.70
9484.00,0.70
9482.00,0.70
9480.00,0.70
9478.00,0.70
9476.00,0.70
9474.00,0.70
9472.00,0.70
9470.00,0.70
9468.00,0.70
9466.00,0.71
9464.00,0.71
9462.00,0.71
9460.00,0.71
9458.00,0.71
9456.00,0.71
9454.00,0.71
9452.00,0.71
9450.00,0.71
9448.00,0.71
9446.00,0.71
9444.00,0.71
9442.00,0.71
9440.00,0.71
9438.00,0.71
9436.00,0.71
9434.00,0.71
9432.00,0.71
9430.00,0.71
9428.00,0.71
9426.00,0.71
9424.00,0.71
9422.00,0.71
9420.00,0.71
9418.00,0.71
9416.00,0.71
9414.00,0.71
9412.00,0.71
9410.00,0.71
9408.00,0.71
9406.00,0.71
9404.00,0.71
9402.00,0.71
9400.00,0.71
9398.00,0.71
9396.00,0.71
9394.00,0.71
9392.00,0.71
9390.00,0.71
9388.00,0.71
9386.00,0.71
9384.00,0.71
9382.00,0.71
9380.00,0.71
9378.00,0.71
9376.00,0.71
9374.00,0.71
9372.00,0.72
9370.00,0.72
9368.00,0.72
9366.00,0.72
9364.00,0.72
9362.00,0.72
9360.00,0.72
9358.00,0.72
9356.00,0.72
9354.00,0.72
9352.00,0.72
9350.00,0.72
9348.00,0.72
9346.00,0.72
9344.00,0.72
9342.00,0.72
9340.00,0.72
9338.00,0.72
9336.00,0.72
9334.00,0.72
9332.00,0.72
9330.00,0.72
9328.00,0.72
9326.00,0.72
9324.00,0.72
9322.00,0.72
9320.00,0.72
9318.00,0.72
9316.00,0.72
9314.00,0.72
9312.00,0.72
9310.00,0.72
9308.00,0.72
9306.00,0.72
9304.00,0.72
9302.00,0.72
9300.00,0.72
9298.00,0.72
9296.00,0.72
9294.00,0.72
9292.00,0.72
9290.00,0.72
9288.00,0.72
9286.00,0.72
9284.00,0.72
9282.00,0.72
9280.00,0.72
9278.00,0.72
9276.00,0.72
9274.00,0.72
9272.00,0.72
9270.00,0.72
9268.00,0.73
9266.00,0.73
9264.00,0.73
9262.00,0.73
9260.00,0.73
9258.00,0.73
9256.00,0.73
9254.00,0.73
9252.00,0.73
9250.00,0.73
9248.00,0.73
9246.00,0.73
9244.00,0.73
9242.00,0.72
9240.00,0.72
9238.00,0.72
9236.00,0.72
9234.00,0.72
9232.00,0.72
9230.00,0.72
9228.00,0.72
9226.00,0.72
9224.00,0.72
9222.00,0.72
9220.00,0.72
9218.00,0.72
9216.00,0.72
9214.00,0.72
9212.00,0.72
9210.00,0.72
9208.00,0.72
9206.00,0.72
9204.00,0.72
9202.00,0.72
9200.00,0.72
9198.00,0.72
9196.00,0.72
9194.00,0.72
9192.00,0.72
9190.00,0.72
9188.00,0.72
9186.00,0.71
9184.00,0.71
9182.00,0.71
9180.00,0.71
9178.00,0.71
9176.00,0.71
9174.00,0.71
9172.00,0.71
9170.00,0.71
9168.00,0.71
9166.00,0.71
9164.00,0.71
9162.00,0.71
9160.00,0.71
9158.00,0.71
9156.00,0.71
9154.00,0.72
9152.00,0.72
9150.00,0.72
9148.00,0.72
9146.00,0.72
9144.00,0.72
9142.00,0.72
9140.00,0.72
9138.00,0.73
9136.00,0.73
9134.00,0.73
9132.00,0.73
9130.00,0.73
9128.00,0.73
9126.00,0.73
9124.00,0.73
9122.00,0.73
9120.00,0.73
9118.00,0.73
9116.00,0.73
9114.00,0.73
9112.00,0.73
9110.00,0.73
9108.00,0.73
9106.00,0.73
9104.00,0.73
9102.00,0.73
9100.00,0.73
9098.00,0.73
9096.00,0.72
9094.00,0.72
9092.00,0.72
9090.00,0.72
9088.00,0.72
9086.00,0.72
9084.00,0.72
9082.00,0.72
9080.00,0.72
9078.00,0.72
9076.00,0.72
9074.00,0.72
9072.00,0.72
9070.00,0.72
9068.00,0.72
9066.00,0.72
9064.00,0.72
9062.00,0.72
9060.00,0.72
9058.00,0.72
9056.00,0.72
9054.00,0.71
9052.00,0.71
9050.00,0.71
9048.00,0.72
9046.00,0.72
9044.00,0.72
9042.00,0.72
9040.00,0.72
9038.00,0.72
9036.00,0.72
9034.00,0.72
9032.00,0.72
9030.00,0.72
9028.00,0.72
9026.00,0.72
9024.00,0.72
9022.00,0.72
9020.00,0.72
9018.00,0.73
9016.00,0.73
9014.00,0.73
9012.00,0.73
9010.00,0.73
9008.00,0.73
9006.00,0.73
9004.00,0.73
9002.00,0.73
9000.00,0.73
8998.00,0.73
8996.00,0.73
8994.00,0.73
8992.00,0.73
8990.00,0.73
8988.00,0.73
8986.00,0.74
8984.00,0.74
8982.00,0.74
8980.00,0.74
8978.00,0.74
8976.00,0.74
8974.00,0.74
8972.00,0.74
8970.00,0.74
8968.00,0.74
8966.00,0.74
8964.00,0.74
8962.00,0.74
8960.00,0.74
8958.00,0.74
8956.00,0.74
8954.00,0.74
8952.00,0.74
8950.00,0.74
8948.00,0.74
8946.00,0.74
8944.00,0.74
8942.00,0.74
8940.00,0.74
8938.00,0.73
8936.00,0.73
8934.00,0.73
8932.00,0.73
8930.00,0.73
8928.00,0.73
8926.00,0.73
8924.00,0.73
8922.00,0.73
8920.00,0.73
8918.00,0.73
8916.00,0.73
8914.00,0.73
8912.00,0.73
8910.00,0.73
8908.00,0.73
8906.00,0.73
8904.00,0.72
8902.00,0.72
8900.00,0.72
8898.00,0.72
8896.00,0.72
8894.00,0.72
8892.00,0.72
8890.00,0.72
8888.00,0.72
8886.00,0.72
8884.00,0.72
8882.00,0.72
8880.00,0.72
8878.00,0.72
8876.00,0.72
8874.00,0.72
8872.00,0.72
8870.00,0.72
8868.00,0.72
8866.00,0.72
8864.00,0.72
8862.00,0.72
8860.00,0.72
8858.00,0.72
8856.00,0.72
8854.00,0.72
8852.00,0.72
8850.00,0.72
8848.00,0.72
8846.00,0.72
8844.00,0.72
8842.00,0.72
8840.00,0.72
8838.00,0.72
8836.00,0.72
8834.00,0.72
8832.00,0.72
8830.00,0.72
8828.00,0.72
8826.00,0.72
8824.00,0.72
8822.00,0.72
8820.00,0.72
8818.00,0.72
8816.00,0.72
8814.00,0.72
8812.00,0.72
8810.00,0.72
8808.00,0.72
8806.00,0.72
8804.00,0.72
8802.00,0.72
8800.00,0.72
8798.00,0.72
8796.00,0.72
8794.00,0.72
8792.00,0.72
8790.00,0.72
8788.00,0.72
8786.00,0.72
8784.00,0.72
8782.00,0.72
8780.00,0.72
8778.00,0.72
8776.00,0.72
8774.00,0.72
8772.00,0.72
8770.00,0.71
8768.00,0.71
8766.00,0.71
8764.00,0.71
8762.00,0.71
8760.00,0.71
8758.00,0.71
8756.00,0.71
8754.00,0.71
8752.00,0.71
8750.00,0.71
8748.00,0.71
8746.00,0.71
8744.00,0.71
8742.00,0.71
8740.00,0.71
8738.00,0.71
8736.00,0.71
8734.00,0.71
8732.00,0.71
8730.00,0.71
8728.00,0.71
8726.00,0.71
8724.00,0.71
8722.00,0.71
8720.00,0.72
8718.00,0.72
8716.00,0.72
8714.00,0.72
8712.00,0.72
8710.00,0.72
8708.00,0.72
8706.00,0.72
8704.00,0.72
8702.00,0.72
8700.00,0.72
8698.00,0.72
8696.00,0.72
8694.00,0.72
8692.00,0.72
8690.00,0.72
8688.00,0.72
8686.00,0.72
8684.00,0.72
8682.00,0.72
8680.00,0.72
8678.00,0.72
8676.00,0.72
8674.00,0.72
8672.00,0.72
8670.00,0.72
8668.00,0.72
8666.00,0.72
8664.00,0.72
8662.00,0.72
8660.00,0.72
8658.00,0.72
8656.00,0.72
8654.00,0.72
8652.00,0.72
8650.00,0.72
8648.00,0.72
8646.00,0.72
8644.00,0.72
8642.00,0.72
8640.00,0.72
8638.00,0.72
8636.00,0.72
8634.00,0.72
8632.00,0.72
8630.00,0.72
8628.00,0.72
8626.00,0.72
8624.00,0.72
8622.00,0.72
8620.00,0.72
8618.00,0.72
8616.00,0.72
8614.00,0.72
8612.00,0.72
8610.00,0.72
8608.00,0.72
8606.00,0.72
8604.00,0.72
8602.00,0.72
8600.00,0.72
8598.00,0.72
8596.00,0.72
8594.00,0.72
8592.00,0.72
8590.00,0.72
8588.00,0.72
8586.00,0.72
8584.00,0.72
8582.00,0.72
8580.00,0.72
8578.00,0.72
8576.00,0.71
8574.00,0.71
8572.00,0.71
8570.00,0.71
8568.00,0.71
8566.00,0.71
8564.00,0.71
8562.00,0.71
8560.00,0.71
8558.00,0.71
8556.00,0.71
8554.00,0.71
8552.00,0.71
8550.00,0.71
8548.00,0.71
8546.00,0.71
8544.00,0.71
8542.00,0.71
8540.00,0.71
8538.00,0.71
8536.00,0.71
8534.00,0.71
8532.00,0.71
8530.00,0.71
8528.00,0.71
8526.00,0.71
8524.00,0.71
8522.00,0.71
8520.00,0.71
8518.00,0.71
8516.00,0.72
8514.00,0.72
8512.00,0.72
8510.00,0.72
8508.00,0.72
8506.00,0.72
8504.00,0.72
8502.00,0.72
8500.00,0.72
8498.00,0.72
8496.00,0.72
8494.00,0.72
8492.00,0.72
8490.00,0.72
8488.00,0.72
8486.00,0.72
8484.00,0.72
8482.00,0.72
8480.00,0.72
8478.00,0.72
8476.00,0.72
8474.00,0.72
8472.00,0.72
8470.00,0.72
8468.00,0.72
8466.00,0.72
8464.00,0.72
8462.00,0.72
8460.00,0.72
8458.00,0.72
8456.00,0.72
8454.00,0.72
8452.00,0.72
8450.00,0.72
8448.00,0.72
8446.00,0.72
8444.00,0.72
8442.00,0.72
8440.00,0.72
8438.00,0.72
8436.00,0.72
8434.00,0.72
8432.00,0.72
8430.00,0.72
8428.00,0.72
8426.00,0.72
8424.00,0.72
8422.00,0.72
8420.00,0.72
8418.00,0.72
8416.00,0.72
8414.00,0.72
8412.00,0.72
8410.00,0.72
8408.00,0.72
8406.00,0.72
8404.00,0.72
8402.00,0.72
8400.00,0.72
8398.00,0.72
8396.00,0.72
8394.00,0.72
8392.00,0.72
8390.00,0.72
8388.00,0.72
8386.00,0.72
8384.00,0.72
8382.00,0.72
8380.00,0.72
8378.00,0.72
8376.00,0.72
8374.00,0.72
8372.00,0.72
8370.00,0.72
8368.00,0.72
8366.00,0.72
8364.00,0.72
8362.00,0.72
8360.00,0.72
8358.00,0.72
8356.00,0.72
8354.00,0.72
8352.00,0.72
8350.00,0.72
8348.00,0.72
8346.00,0.72
8344.00,0.72
8342.00,0.72
8340.00,0.72
8338.00,0.72
8336.00,0.72
8334.00,0.73
8332.00,0.73
8330.00,0.73
8328.00,0.73
8326.00,0.73
8324.00,0.73
8322.00,0.73
8320.00,0.73
8318.00,0.73
8316.00,0.73
8314.00,0.73
8312.00,0.73
8310.00,0.73
8308.00,0.73
8306.00,0.73
8304.00,0.73
8302.00,0.73
8300.00,0.73
8298.00,0.73
8296.00,0.73
8294.00,0.73
8292.00,0.73
8290.00,0.73
8288.00,0.73
8286.00,0.73
8284.00,0.73
8282.00,0.73
8280.00,0.73
8278.00,0.73
8276.00,0.73
8274.00,0.73
8272.00,0.73
8270.00,0.73
8268.00,0.73
8266.00,0.73
8264.00,0.72
8262.00,0.72
8260.00,0.72
8258.00,0.72
8256.00,0.72
8254.00,0.72
8252.00,0.72
8250.00,0.72
8248.00,0.71
8246.00,0.71
8244.00,0.71
8242.00,0.71
8240.00,0.71
8238.00,0.71
8236.00,0.71
8234.00,0.72
8232.00,0.72
8230.00,0.72
8228.00,0.72
8226.00,0.72
8224.00,0.72
8222.00,0.72
8220.00,0.72
8218.00,0.72
8216.00,0.72
8214.00,0.72
8212.00,0.73
8210.00,0.73
8208.00,0.73
8206.00,0.73
8204.00,0.73
8202.00,0.72
8200.00,0.72
8198.00,0.72
8196.00,0.72
8194.00,0.72
8192.00,0.72
8190.00,0.72
8188.00,0.72
8186.00,0.72
8184.00,0.72
8182.00,0.72
8180.00,0.72
8178.00,0.72
8176.00,0.72
8174.00,0.72
8172.00,0.72
8170.00,0.72
8168.00,0.72
8166.00,0.72
8164.00,0.72
8162.00,0.72
8160.00,0.72
8158.00,0.72
8156.00,0.73
8154.00,0.73
8152.00,0.73
8150.00,0.73
8148.00,0.73
8146.00,0.73
8144.00,0.73
8142.00,0.73
8140.00,0.73
8138.00,0.73
8136.00,0.73
8134.00,0.73
8132.00,0.73
8130.00,0.73
8128.00,0.72
8126.00,0.72
8124.00,0.72
8122.00,0.73
8120.00,0.73
8118.00,0.73
8116.00,0.73
8114.00,0.73
8112.00,0.73
8110.00,0.73
8108.00,0.73
8106.00,0.73
8104.00,0.73
8102.00,0.73
8100.00,0.73
8098.00,0.73
8096.00,0.73
8094.00,0.73
8092.00,0.73
8090.00,0.73
8088.00,0.73
8086.00,0.73
8084.00,0.73
8082.00,0.73
8080.00,0.73
8078.00,0.73
8076.00,0.73
8074.00,0.73
8072.00,0.73
8070.00,0.73
8068.00,0.73
8066.00,0.73
8064.00,0.73
8062.00,0.73
8060.00,0.73
8058.00,0.73
8056.00,0.73
8054.00,0.73
8052.00,0.73
8050.00,0.73
8048.00,0.73
8046.00,0.73
8044.00,0.73
8042.00,0.73
8040.00,0.73
8038.00,0.73
8036.00,0.73
8034.00,0.73
8032.00,0.73
8030.00,0.73
8028.00,0.73
8026.00,0.73
8024.00,0.73
8022.00,0.73
8020.00,0.73
8018.00,0.73
8016.00,0.73
8014.00,0.73
8012.00,0.73
8010.00,0.73
8008.00,0.73
8006.00,0.73
8004.00,0.73
8002.00,0.73
8000.00,0.73
7998.00,0.73
7996.00,0.74
7994.00,0.74
7992.00,0.74
7990.00,0.74
7988.00,0.74
7986.00,0.74
7984.00,0.74
7982.00,0.74
7980.00,0.74
7978.00,0.74
7976.00,0.74
7974.00,0.74
7972.00,0.74
7970.00,0.74
7968.00,0.74
7966.00,0.74
7964.00,0.74
7962.00,0.74
7960.00,0.74
7958.00,0.74
7956.00,0.74
7954.00,0.74
7952.00,0.74
7950.00,0.74
7948.00,0.74
7946.00,0.74
7944.00,0.74
7942.00,0.74
7940.00,0.74
7938.00,0.74
7936.00,0.74
7934.00,0.74
7932.00,0.74
7930.00,0.74
7928.00,0.74
7926.00,0.74
7924.00,0.74
7922.00,0.74
7920.00,0.74
7918.00,0.74
7916.00,0.74
7914.00,0.74
7912.00,0.74
7910.00,0.74
7908.00,0.74
7906.00,0.74
7904.00,0.74
7902.00,0.74
7900.00,0.74
7898.00,0.74
7896.00,0.74
7894.00,0.74
7892.00,0.74
7890.00,0.74
7888.00,0.74
7886.00,0.74
7884.00,0.74
7882.00,0.73
7880.00,0.73
7878.00,0.73
7876.00,0.73
7874.00,0.73
7872.00,0.73
7870.00,0.73
7868.00,0.73
7866.00,0.73
7864.00,0.73
7862.00,0.73
7860.00,0.73
7858.00,0.73
7856.00,0.73
7854.00,0.73
7852.00,0.73
7850.00,0.73
7848.00,0.73
7846.00,0.73
7844.00,0.73
7842.00,0.73
7840.00,0.73
7838.00,0.73
7836.00,0.73
7834.00,0.73
7832.00,0.73
7830.00,0.73
7828.00,0.73
7826.00,0.73
7824.00,0.74
7822.00,0.74
7820.00,0.74
7818.00,0.74
7816.00,0.74
7814.00,0.74
7812.00,0.74
7810.00,0.74
7808.00,0.74
7806.00,0.74
7804.00,0.74
7802.00,0.75
7800.00,0.75
7798.00,0.75
7796.00,0.75
7794.00,0.75
7792.00,0.75
7790.00,0.75
7788.00,0.75
7786.00,0.75
7784.00,0.75
7782.00,0.75
7780.00,0.75
7778.00,0.75
7776.00,0.75
7774.00,0.75
7772.00,0.75
7770.00,0.75
7768.00,0.75
7766.00,0.74
7764.00,0.74
7762.00,0.74
7760.00,0.74
7758.00,0.74
7756.00,0.74
7754.00,0.74
7752.00,0.74
7750.00,0.74
7748.00,0.74
7746.00,0.73
7744.00,0.73
7742.00,0.73
7740.00,0.73
7738.00,0.73
7736.00,0.73
7734.00,0.73
7732.00,0.73
7730.00,0.73
7728.00,0.73
7726.00,0.73
7724.00,0.73
7722.00,0.73
7720.00,0.73
7718.00,0.73
7716.00,0.74
7714.00,0.74
7712.00,0.74
7710.00,0.74
7708.00,0.74
7706.00,0.74
7704.00,0.74
7702.00,0.74
7700.00,0.74
7698.00,0.74
7696.00,0.74
7694.00,0.74
7692.00,0.74
7690.00,0.74
7688.00,0.74
7686.00,0.74
7684.00,0.74
7682.00,0.74
7680.00,0.74
7678.00,0.74
7676.00,0.74
7674.00,0.74
7672.00,0.74
7670.00,0.74
7668.00,0.74
7666.00,0.74
7664.00,0.74
7662.00,0.74
7660.00,0.74
7658.00,0.74
7656.00,0.74
7654.00,0.74
7652.00,0.75
7650.00,0.75
7648.00,0.75
7646.00,0.75
7644.00,0.75
7642.00,0.75
7640.00,0.75
7638.00,0.75
7636.00,0.75
7634.00,0.74
7632.00,0.74
7630.00,0.74
7628.00,0.74
7626.00,0.74
7624.00,0.74
7622.00,0.74
7620.00,0.74
7618.00,0.74
7616.00,0.74
7614.00,0.74
7612.00,0.74
7610.00,0.74
7608.00,0.74
7606.00,0.74
7604.00,0.74
7602.00,0.74
7600.00,0.74
7598.00,0.74
7596.00,0.74
7594.00,0.74
7592.00,0.74
7590.00,0.74
7588.00,0.74
7586.00,0.74
7584.00,0.74
7582.00,0.74
7580.00,0.74
7578.00,0.74
7576.00,0.74
7574.00,0.74
7572.00,0.74
7570.00,0.74
7568.00,0.74
7566.00,0.74
7564.00,0.74
7562.00,0.74
7560.00,0.74
7558.00,0.74
7556.00,0.74
7554.00,0.74
7552.00,0.74
7550.00,0.74
7548.00,0.74
7546.00,0.74
7544.00,0.74
7542.00,0.74
7540.00,0.74
7538.00,0.74
7536.00,0.74
7534.00,0.74
7532.00,0.74
7530.00,0.74
7528.00,0.74
7526.00,0.74
7524.00,0.74
7522.00,0.74
7520.00,0.74
7518.00,0.74
7516.00,0.74
7514.00,0.74
7512.00,0.74
7510.00,0.74
7508.00,0.74
7506.00,0.74
7504.00,0.74
7502.00,0.74
7500.00,0.74
7498.00,0.74
7496.00,0.74
7494.00,0.74
7492.00,0.74
7490.00,0.74
7488.00,0.74
7486.00,0.74
7484.00,0.74
7482.00,0.74
7480.00,0.74
7478.00,0.74
7476.00,0.74
7474.00,0.74
7472.00,0.74
7470.00,0.74
7468.00,0.74
7466.00,0.74
7464.00,0.74
7462.00,0.74
7460.00,0.74
7458.00,0.74
7456.00,0.74
7454.00,0.74
7452.00,0.74
7450.00,0.74
7448.00,0.74
7446.00,0.74
7444.00,0.74
7442.00,0.75
7440.00,0.74
7438.00,0.74
7436.00,0.74
7434.00,0.74
7432.00,0.74
7430.00,0.74
7428.00,0.74
7426.00,0.74
7424.00,0.74
7422.00,0.74
7420.00,0.74
7418.00,0.74
7416.00,0.74
7414.00,0.74
7412.00,0.74
7410.00,0.74
7408.00,0.74
7406.00,0.73
7404.00,0.73
7402.00,0.73
7400.00,0.73
7398.00,0.73
7396.00,0.73
7394.00,0.73
7392.00,0.73
7390.00,0.73
7388.00,0.73
7386.00,0.73
7384.00,0.73
7382.00,0.73
7380.00,0.73
7378.00,0.72
7376.00,0.72
7374.00,0.72
7372.00,0.72
7370.00,0.72
7368.00,0.72
7366.00,0.72
7364.00,0.72
7362.00,0.72
7360.00,0.72
7358.00,0.72
7356.00,0.72
7354.00,0.72
7352.00,0.72
7350.00,0.71
7348.00,0.71
7346.00,0.71
7344.00,0.71
7342.00,0.71
7340.00,0.71
7338.00,0.72
7336.00,0.72
7334.00,0.72
7332.00,0.72
7330.00,0.72
7328.00,0.72
7326.00,0.72
7324.00,0.72
7322.00,0.72
7320.00,0.72
7318.00,0.72
7316.00,0.72
7314.00,0.72
7312.00,0.72
7310.00,0.72
7308.00,0.72
7306.00,0.72
7304.00,0.72
7302.00,0.72
7300.00,0.72
7298.00,0.72
7296.00,0.72
7294.00,0.72
7292.00,0.72
7290.00,0.72
7288.00,0.72
7286.00,0.72
7284.00,0.72
7282.00,0.72
7280.00,0.72
7278.00,0.72
7276.00,0.72
7274.00,0.72
7272.00,0.72
7270.00,0.72
7268.00,0.72
7266.00,0.72
7264.00,0.72
7262.00,0.72
7260.00,0.72
7258.00,0.72
7256.00,0.72
7254.00,0.72
7252.00,0.72
7250.00,0.71
7248.00,0.71
7246.00,0.71
7244.00,0.71
7242.00,0.71
7240.00,0.71
7238.00,0.71
7236.00,0.71
7234.00,0.71
7232.00,0.71
7230.00,0.70
7228.00,0.70
7226.00,0.70
7224.00,0.70
7222.00,0.70
7220.00,0.70
7218.00,0.70
7216.00,0.70
7214.00,0.70
7212.00,0.70
7210.00,0.70
7208.00,0.70
7206.00,0.70
7204.00,0.69
7202.00,0.69
7200.00,0.69
7198.00,0.69
7196.00,0.69
7194.00,0.69
7192.00,0.69
7190.00,0.69
7188.00,0.69
7186.00,0.69
7184.00,0.68
7182.00,0.68
7180.00,0.68
7178.00,0.68
7176.00,0.68
7174.00,0.68
7172.00,0.68
7170.00,0.68
7168.00,0.68
7166.00,0.68
7164.00,0.67
7162.00,0.67
7160.00,0.67
7158.00,0.67
7156.00,0.67
7154.00,0.67
7152.00,0.67
7150.00,0.67
7148.00,0.67
7146.00,0.66
7144.00,0.66
7142.00,0.66
7140.00,0.66
7138.00,0.66
7136.00,0.66
7134.00,0.66
7132.00,0.66
7130.00,0.65
7128.00,0.65
7126.00,0.65
7124.00,0.65
7122.00,0.65
7120.00,0.65
7118.00,0.65
7116.00,0.65
7114.00,0.65
7112.00,0.65
7110.00,0.65
7108.00,0.65
7106.00,0.65
7104.00,0.65
7102.00,0.65
7100.00,0.65
7098.00,0.65
7096.00,0.65
7094.00,0.65
7092.00,0.64
7090.00,0.64
7088.00,0.64
7086.00,0.64
7084.00,0.64
7082.00,0.64
7080.00,0.64
7078.00,0.64
7076.00,0.64
7074.00,0.64
7072.00,0.64
7070.00,0.64
7068.00,0.64
7066.00,0.64
7064.00,0.64
7062.00,0.64
7060.00,0.64
7058.00,0.64
7056.00,0.64
7054.00,0.64
7052.00,0.64
7050.00,0.64
7048.00,0.63
7046.00,0.63
7044.00,0.63
7042.00,0.63
7040.00,0.63
7038.00,0.63
7036.00,0.63
7034.00,0.63
7032.00,0.63
7030.00,0.63
7028.00,0.63
7026.00,0.63
7024.00,0.63
7022.00,0.63
7020.00,0.63
7018.00,0.63
7016.00,0.63
7014.00,0.63
7012.00,0.63
7010.00,0.63
7008.00,0.63
7006.00,0.63
7004.00,0.63
7002.00,0.63
7000.00,0.63
6998.00,0.63
6996.00,0.63
6994.00,0.63
6992.00,0.63
6990.00,0.63
6988.00,0.62
6986.00,0.62
6984.00,0.62
6982.00,0.62
6980.00,0.62
6978.00,0.62
6976.00,0.62
6974.00,0.62
6972.00,0.62
6970.00,0.62
6968.00,0.62
6966.00,0.62
6964.00,0.62
6962.00,0.62
6960.00,0.62
6958.00,0.62
6956.00,0.62
6954.00,0.62
6952.00,0.62
6950.00,0.62
6948.00,0.62
6946.00,0.62
6944.00,0.62
6942.00,0.62
6940.00,0.62
6938.00,0.62
6936.00,0.62
6934.00,0.62
6932.00,0.62
6930.00,0.62
6928.00,0.62
6926.00,0.62
6924.00,0.62
6922.00,0.62
6920.00,0.62
6918.00,0.62
6916.00,0.62
6914.00,0.62
6912.00,0.62
6910.00,0.62
6908.00,0.62
6906.00,0.62
6904.00,0.62
6902.00,0.62
6900.00,0.62
6898.00,0.62
6896.00,0.62
6894.00,0.62
6892.00,0.62
6890.00,0.62
6888.00,0.62
6886.00,0.62
6884.00,0.62
6882.00,0.62
6880.00,0.62
6878.00,0.62
6876.00,0.62
6874.00,0.62
6872.00,0.62
6870.00,0.62
6868.00,0.62
6866.00,0.62
6864.00,0.62
6862.00,0.62
6860.00,0.62
6858.00,0.62
6856.00,0.62
6854.00,0.62
6852.00,0.62
6850.00,0.62
6848.00,0.62
6846.00,0.62
6844.00,0.62
6842.00,0.62
6840.00,0.62
6838.00,0.62
6836.00,0.62
6834.00,0.62
6832.00,0.62
6830.00,0.62
6828.00,0.62
6826.00,0.62
6824.00,0.62
6822.00,0.62
6820.00,0.62
6818.00,0.62
6816.00,0.62
6814.00,0.62
6812.00,0.63
6810.00,0.63
6808.00,0.63
6806.00,0.63
6804.00,0.63
6802.00,0.63
6800.00,0.63
6798.00,0.63
6796.00,0.63
6794.00,0.63
6792.00,0.63
6790.00,0.63
6788.00,0.63
6786.00,0.63
6784.00,0.63
6782.00,0.63
6780.00,0.63
6778.00,0.63
6776.00,0.63
6774.00,0.63
6772.00,0.63
6770.00,0.63
6768.00,0.63
6766.00,0.63
6764.00,0.63
6762.00,0.63
6760.00,0.64
6758.00,0.64
6756.00,0.64
6754.00,0.64
6752.00,0.64
6750.00,0.64
6748.00,0.64
6746.00,0.64
6744.00,0.64
6742.00,0.64
6740.00,0.64
6738.00,0.64
6736.00,0.64
6734.00,0.64
6732.00,0.64
6730.00,0.64
6728.00,0.64
6726.00,0.64
6724.00,0.64
6722.00,0.65
6720.00,0.65
6718.00,0.65
6716.00,0.65
6714.00,0.65
6712.00,0.65
6710.00,0.65
6708.00,0.65
6706.00,0.65
6704.00,0.65
6702.00,0.65
6700.00,0.65
6698.00,0.65
6696.00,0.65
6694.00,0.65
6692.00,0.65
6690.00,0.65
6688.00,0.65
6686.00,0.65
6684.00,0.65
6682.00,0.66
6680.00,0.66
6678.00,0.66
6676.00,0.66
6674.00,0.66
6672.00,0.66
6670.00,0.66
6668.00,0.66
6666.00,0.66
6664.00,0.66
6662.00,0.66
6660.00,0.66
6658.00,0.66
6656.00,0.66
6654.00,0.66
6652.00,0.66
6650.00,0.66
6648.00,0.66
6646.00,0.66
6644.00,0.66
6642.00,0.66
6640.00,0.66
6638.00,0.66
6636.00,0.66
6634.00,0.66
6632.00,0.67
6630.00,0.67
6628.00,0.67
6626.00,0.67
6624.00,0.67
6622.00,0.67
6620.00,0.67
6618.00,0.67
6616.00,0.67
6614.00,0.67
6612.00,0.67
6610.00,0.67
6608.00,0.67
6606.00,0.67
6604.00,0.67
6602.00,0.67
6600.00,0.67
6598.00,0.68
6596.00,0.68
6594.00,0.68
6592.00,0.68
6590.00,0.68
6588.00,0.68
6586.00,0.68
6584.00,0.68
6582.00,0.68
6580.00,0.68
6578.00,0.68
6576.00,0.68
6574.00,0.68
6572.00,0.68
6570.00,0.68
6568.00,0.68
6566.00,0.68
6564.00,0.68
6562.00,0.68
6560.00,0.68
6558.00,0.68
6556.00,0.68
6554.00,0.68
6552.00,0.68
6550.00,0.68
6548.00,0.68
6546.00,0.68
6544.00,0.68
6542.00,0.68
6540.00,0.69
6538.00,0.69
6536.00,0.69
6534.00,0.69
6532.00,0.69
6530.00,0.69
6528.00,0.69
6526.00,0.69
6524.00,0.69
6522.00,0.69
6520.00,0.69
6518.00,0.69
6516.00,0.69
6514.00,0.69
6512.00,0.69
6510.00,0.69
6508.00,0.69
6506.00,0.69
6504.00,0.69
6502.00,0.69
6500.00,0.69
6498.00,0.69
6496.00,0.69
6494.00,0.69
6492.00,0.69
6490.00,0.69
6488.00,0.69
6486.00,0.69
6484.00,0.69
6482.00,0.70
6480.00,0.70
6478.00,0.70
6476.00,0.70
6474.00,0.70
6472.00,0.70
6470.00,0.70
6468.00,0.70
6466.00,0.70
6464.00,0.70
6462.00,0.70
6460.00,0.70
6458.00,0.70
6456.00,0.70
6454.00,0.70
6452.00,0.70
6450.00,0.70
6448.00,0.70
6446.00,0.70
6444.00,0.70
6442.00,0.70
6440.00,0.70
6438.00,0.70
6436.00,0.70
6434.00,0.70
6432.00,0.70
6430.00,0.70
6428.00,0.70
6426.00,0.70
6424.00,0.70
6422.00,0.70
6420.00,0.70
6418.00,0.70
6416.00,0.70
6414.00,0.70
6412.00,0.70
6410.00,0.70
6408.00,0.70
6406.00,0.70
6404.00,0.70
6402.00,0.70
6400.00,0.70
6398.00,0.70
6396.00,0.70
6394.00,0.70
6392.00,0.70
6390.00,0.71
6388.00,0.71
6386.00,0.71
6384.00,0.71
6382.00,0.71
6380.00,0.71
6378.00,0.71
6376.00,0.71
6374.00,0.71
6372.00,0.71
6370.00,0.71
6368.00,0.71
6366.00,0.71
6364.00,0.71
6362.00,0.71
6360.00,0.71
6358.00,0.71
6356.00,0.71
6354.00,0.71
6352.00,0.71
6350.00,0.71
6348.00,0.71
6346.00,0.71
6344.00,0.71
6342.00,0.71
6340.00,0.71
6338.00,0.71
6336.00,0.71
6334.00,0.71
6332.00,0.71
6330.00,0.71
6328.00,0.71
6326.00,0.71
6324.00,0.71
6322.00,0.72
6320.00,0.72
6318.00,0.72
6316.00,0.72
6314.00,0.72
6312.00,0.72
6310.00,0.72
6308.00,0.72
6306.00,0.72
6304.00,0.72
6302.00,0.72
6300.00,0.72
6298.00,0.72
6296.00,0.72
6294.00,0.72
6292.00,0.72
6290.00,0.72
6288.00,0.72
6286.00,0.72
6284.00,0.72
6282.00,0.72
6280.00,0.72
6278.00,0.72
6276.00,0.72
6274.00,0.72
6272.00,0.72
6270.00,0.72
6268.00,0.72
6266.00,0.72
6264.00,0.72
6262.00,0.72
6260.00,0.72
6258.00,0.72
6256.00,0.72
6254.00,0.72
6252.00,0.72
6250.00,0.72
6248.00,0.72
6246.00,0.73
6244.00,0.73
6242.00,0.73
6240.00,0.73
6238.00,0.73
6236.00,0.73
6234.00,0.73
6232.00,0.73
6230.00,0.73
6228.00,0.73
6226.00,0.73
6224.00,0.73
6222.00,0.73
6220.00,0.73
6218.00,0.73
6216.00,0.73
6214.00,0.73
6212.00,0.73
6210.00,0.73
6208.00,0.73
6206.00,0.73
6204.00,0.73
6202.00,0.73
6200.00,0.73
6198.00,0.73
6196.00,0.73
6194.00,0.73
6192.00,0.73
6190.00,0.73
6188.00,0.73
6186.00,0.73
6184.00,0.73
6182.00,0.73
6180.00,0.73
6178.00,0.73
6176.00,0.73
6174.00,0.73
6172.00,0.73
6170.00,0.73
6168.00,0.74
6166.00,0.74
6164.00,0.74
6162.00,0.74
6160.00,0.74
6158.00,0.74
6156.00,0.74
6154.00,0.74
6152.00,0.74
6150.00,0.74
6148.00,0.74
6146.00,0.74
6144.00,0.74
6142.00,0.74
6140.00,0.74
6138.00,0.74
6136.00,0.74
6134.00,0.74
6132.00,0.74
6130.00,0.74
6128.00,0.74
6126.00,0.74
6124.00,0.74
6122.00,0.74
6120.00,0.74
6118.00,0.74
6116.00,0.74
6114.00,0.74
6112.00,0.74
6110.00,0.74
6108.00,0.74
6106.00,0.74
6104.00,0.74
6102.00,0.74
6100.00,0.74
6098.00,0.74
6096.00,0.74
6094.00,0.74
6092.00,0.74
6090.00,0.74
6088.00,0.74
6086.00,0.74
6084.00,0.74
6082.00,0.74
6080.00,0.74
6078.00,0.74
6076.00,0.74
6074.00,0.74
6072.00,0.74
6070.00,0.74
6068.00,0.74
6066.00,0.74
6064.00,0.74
6062.00,0.74
6060.00,0.75
6058.00,0.75
6056.00,0.75
6054.00,0.75
6052.00,0.75
6050.00,0.75
6048.00,0.75
6046.00,0.75
6044.00,0.75
6042.00,0.75
6040.00,0.75
6038.00,0.75
6036.00,0.75
6034.00,0.75
6032.00,0.75
6030.00,0.75
6028.00,0.75
6026.00,0.75
6024.00,0.75
6022.00,0.75
6020.00,0.75
6018.00,0.75
6016.00,0.75
6014.00,0.75
6012.00,0.75
6010.00,0.75
6008.00,0.75
6006.00,0.75
6004.00,0.75
6002.00,0.75
6000.00,0.75
5998.00,0.75
5996.00,0.75
5994.00,0.75
5992.00,0.75
5990.00,0.75
5988.00,0.75
5986.00,0.74
5984.00,0.74
5982.00,0.74
5980.00,0.74
5978.00,0.74
5976.00,0.74
5974.00,0.74
5972.00,0.74
5970.00,0.74
5968.00,0.74
5966.00,0.74
5964.00,0.74
5962.00,0.74
5960.00,0.74
5958.00,0.74
5956.00,0.73
5954.00,0.73
5952.00,0.73
5950.00,0.73
5948.00,0.73
5946.00,0.73
5944.00,0.73
5942.00,0.73
5940.00,0.73
5938.00,0.73
5936.00,0.73
5934.00,0.73
5932.00,0.73
5930.00,0.73
5928.00,0.73
5926.00,0.73
5924.00,0.73
5922.00,0.73
5920.00,0.73
5918.00,0.73
5916.00,0.73
5914.00,0.73
5912.00,0.73
5910.00,0.73
5908.00,0.73
5906.00,0.73
5904.00,0.73
5902.00,0.73
5900.00,0.73
5898.00,0.73
5896.00,0.73
5894.00,0.73
5892.00,0.73
5890.00,0.73
5888.00,0.73
5886.00,0.73
5884.00,0.73
5882.00,0.73
5880.00,0.73
5878.00,0.73
5876.00,0.73
5874.00,0.73
5872.00,0.73
5870.00,0.74
5868.00,0.74
5866.00,0.74
5864.00,0.74
5862.00,0.74
5860.00,0.74
5858.00,0.74
5856.00,0.74
5854.00,0.74
5852.00,0.74
5850.00,0.74
5848.00,0.74
5846.00,0.74
5844.00,0.74
5842.00,0.74
5840.00,0.74
5838.00,0.74
5836.00,0.74
5834.00,0.74
5832.00,0.74
5830.00,0.74
5828.00,0.74
5826.00,0.74
5824.00,0.74
5822.00,0.74
5820.00,0.74
5818.00,0.74
5816.00,0.74
5814.00,0.74
5812.00,0.74
5810.00,0.74
5808.00,0.74
5806.00,0.74
5804.00,0.74
5802.00,0.74
5800.00,0.74
5798.00,0.74
5796.00,0.74
5794.00,0.74
5792.00,0.73
5790.00,0.73
5788.00,0.73
5786.00,0.73
5784.00,0.73
5782.00,0.73
5780.00,0.73
5778.00,0.73
5776.00,0.73
5774.00,0.73
5772.00,0.73
5770.00,0.73
5768.00,0.73
5766.00,0.73
5764.00,0.74
5762.00,0.74
5760.00,0.74
5758.00,0.74
5756.00,0.74
5754.00,0.74
5752.00,0.74
5750.00,0.74
5748.00,0.74
5746.00,0.74
5744.00,0.74
5742.00,0.74
5740.00,0.74
5738.00,0.74
5736.00,0.74
5734.00,0.74
5732.00,0.74
5730.00,0.74
5728.00,0.74
5726.00,0.74
5724.00,0.74
5722.00,0.74
5720.00,0.74
5718.00,0.74
5716.00,0.74
5714.00,0.74
5712.00,0.74
5710.00,0.74
5708.00,0.74
5706.00,0.74
5704.00,0.74
5702.00,0.74
5700.00,0.74
5698.00,0.74
5696.00,0.74
5694.00,0.74
5692.00,0.74
5690.00,0.74
5688.00,0.74
5686.00,0.74
5684.00,0.74
5682.00,0.74
5680.00,0.74
5678.00,0.74
5676.00,0.74
5674.00,0.74
5672.00,0.74
5670.00,0.74
5668.00,0.74
5666.00,0.74
5664.00,0.74
5662.00,0.74
5660.00,0.74
5658.00,0.74
5656.00,0.74
5654.00,0.74
5652.00,0.74
5650.00,0.74
5648.00,0.74
5646.00,0.74
5644.00,0.74
5642.00,0.74
5640.00,0.74
5638.00,0.74
5636.00,0.74
5634.00,0.74
5632.00,0.74
5630.00,0.74
5628.00,0.74
5626.00,0.74
5624.00,0.74
5622.00,0.74
5620.00,0.74
5618.00,0.74
5616.00,0.74
5614.00,0.74
5612.00,0.74
5610.00,0.74
5608.00,0.74
5606.00,0.74
5604.00,0.74
5602.00,0.74
5600.00,0.74
5598.00,0.74
5596.00,0.74
5594.00,0.74
5592.00,0.74
5590.00,0.74
5588.00,0.74
5586.00,0.75
5584.00,0.75
5582.00,0.75
5580.00,0.75
5578.00,0.75
5576.00,0.75
5574.00,0.75
5572.00,0.75
5570.00,0.75
5568.00,0.75
5566.00,0.75
5564.00,0.75
5562.00,0.75
5560.00,0.75
5558.00,0.75
5556.00,0.75
5554.00,0.75
5552.00,0.75
5550.00,0.75
5548.00,0.75
5546.00,0.75
5544.00,0.75
5542.00,0.75
5540.00,0.75
5538.00,0.75
5536.00,0.75
5534.00,0.75
5532.00,0.75
5530.00,0.75
5528.00,0.75
5526.00,0.75
5524.00,0.75
5522.00,0.75
5520.00,0.75
5518.00,0.75
5516.00,0.75
5514.00,0.75
5512.00,0.75
5510.00,0.75
5508.00,0.75
5506.00,0.75
5504.00,0.75
5502.00,0.75
5500.00,0.75
5498.00,0.75
5496.00,0.75
5494.00,0.75
5492.00,0.75
5490.00,0.75
5488.00,0.75
5486.00,0.75
5484.00,0.75
5482.00,0.75
5480.00,0.75
5478.00,0.75
5476.00,0.75
5474.00,0.75
5472.00,0.75
5470.00,0.75
5468.00,0.75
5466.00,0.75
5464.00,0.75
5462.00,0.75
5460.00,0.75
5458.00,0.75
5456.00,0.75
5454.00,0.75
5452.00,0.75
5450.00,0.75
5448.00,0.75
5446.00,0.75
5444.00,0.75
5442.00,0.75
5440.00,0.75
5438.00,0.75
5436.00,0.75
5434.00,0.75
5432.00,0.75
5430.00,0.75
5428.00,0.75
5426.00,0.75
5424.00,0.75
5422.00,0.75
5420.00,0.75
5418.00,0.75
5416.00,0.75
5414.00,0.75
5412.00,0.75
5410.00,0.75
5408.00,0.75
5406.00,0.75
5404.00,0.75
5402.00,0.75
5400.00,0.75
5398.00,0.75
5396.00,0.75
5394.00,0.75
5392.00,0.75
5390.00,0.75
5388.00,0.75
5386.00,0.74
5384.00,0.74
5382.00,0.74
5380.00,0.74
5378.00,0.74
5376.00,0.74
5374.00,0.74
5372.00,0.74
5370.00,0.73
5368.00,0.73
5366.00,0.73
5364.00,0.73
5362.00,0.73
5360.00,0.72
5358.00,0.72
5356.00,0.72
5354.00,0.72
5352.00,0.72
5350.00,0.71
5348.00,0.71
5346.00,0.71
5344.00,0.70
5342.00,0.70
5340.00,0.70
5338.00,0.70
5336.00,0.69
5334.00,0.69
5332.00,0.69
5330.00,0.69
5328.00,0.68
5326.00,0.68
5324.00,0.68
5322.00,0.67
5320.00,0.67
5318.00,0.67
5316.00,0.66
5314.00,0.66
5312.00,0.65
5310.00,0.65
5308.00,0.65
5306.00,0.64
5304.00,0.64
5302.00,0.63
5300.00,0.63
5298.00,0.62
5296.00,0.62
5294.00,0.61
5292.00,0.61
5290.00,0.60
5288.00,0.60
5286.00,0.59
5284.00,0.59
5282.00,0.58
5280.00,0.58
5278.00,0.57
5276.00,0.57
5274.00,0.56
5272.00,0.56
5270.00,0.56
5268.00,0.55
5266.00,0.55
5264.00,0.54
5262.00,0.54
5260.00,0.54
5258.00,0.53
5256.00,0.53
5254.00,0.53
5252.00,0.53
5250.00,0.52
5248.00,0.52
5246.00,0.52
5244.00,0.52
5242.00,0.51
5240.00,0.51
5238.00,0.51
5236.00,0.51
5234.00,0.51
5232.00,0.51
5230.00,0.50
5228.00,0.50
5226.00,0.50
5224.00,0.50
5222.00,0.50
5220.00,0.50
5218.00,0.50
5216.00,0.49
5214.00,0.49
5212.00,0.49
5210.00,0.49
5208.00,0.49
5206.00,0.49
5204.00,0.49
5202.00,0.49
5200.00,0.49
5198.00,0.48
5196.00,0.48
5194.00,0.48
5192.00,0.48
5190.00,0.48
5188.00,0.48
5186.00,0.48
5184.00,0.48
5182.00,0.48
5180.00,0.48
5178.00,0.48
5176.00,0.48
5174.00,0.48
5172.00,0.48
5170.00,0.48
5168.00,0.48
5166.00,0.48
5164.00,0.48
5162.00,0.48
5160.00,0.49
5158.00,0.49
5156.00,0.49
5154.00,0.49
5152.00,0.49
5150.00,0.49
5148.00,0.49
5146.00,0.49
5144.00,0.49
5142.00,0.49
5140.00,0.49
5138.00,0.49
5136.00,0.50
5134.00,0.50
5132.00,0.50
5130.00,0.50
5128.00,0.50
5126.00,0.50
5124.00,0.50
5122.00,0.50
5120.00,0.51
5118.00,0.51
5116.00,0.51
5114.00,0.51
5112.00,0.51
5110.00,0.51
5108.00,0.51
5106.00,0.51
5104.00,0.52
5102.00,0.52
5100.00,0.52
5098.00,0.52
5096.00,0.52
5094.00,0.52
5092.00,0.53
5090.00,0.53
5088.00,0.53
5086.00,0.53
5084.00,0.53
5082.00,0.53
5080.00,0.54
5078.00,0.54
5076.00,0.54
5074.00,0.54
5072.00,0.54
5070.00,0.55
5068.00,0.55
5066.00,0.55
5064.00,0.55
5062.00,0.55
5060.00,0.55
5058.00,0.56
5056.00,0.56
5054.00,0.56
5052.00,0.56
5050.00,0.56
5048.00,0.56
5046.00,0.57
5044.00,0.57
5042.00,0.57
5040.00,0.57
5038.00,0.57
5036.00,0.57
5034.00,0.57
5032.00,0.58
5030.00,0.58
5028.00,0.58
5026.00,0.58
5024.00,0.58
5022.00,0.58
5020.00,0.58
5018.00,0.59
5016.00,0.59
5014.00,0.59
5012.00,0.59
5010.00,0.59
5008.00,0.59
5006.00,0.59
5004.00,0.60
5002.00,0.60
5000.00,0.60
4998.00,0.60
4996.00,0.60
4994.00,0.60
4992.00,0.60
4990.00,0.60
4988.00,0.61
4986.00,0.61
4984.00,0.61
4982.00,0.61
4980.00,0.61
4978.00,0.61
4976.00,0.61
4974.00,0.61
4972.00,0.62
4970.00,0.62
4968.00,0.62
4966.00,0.62
4964.00,0.62
4962.00,0.62
4960.00,0.62
4958.00,0.62
4956.00,0.62
4954.00,0.63
4952.00,0.63
4950.00,0.63
4948.00,0.63
4946.00,0.63
4944.00,0.63
4942.00,0.63
4940.00,0.63
4938.00,0.64
4936.00,0.64
4934.00,0.64
4932.00,0.64
4930.00,0.64
4928.00,0.64
4926.00,0.64
4924.00,0.64
4922.00,0.65
4920.00,0.65
4918.00,0.65
4916.00,0.65
4914.00,0.65
4912.00,0.65
4910.00,0.65
4908.00,0.65
4906.00,0.65
4904.00,0.65
4902.00,0.66
4900.00,0.66
4898.00,0.66
4896.00,0.66
4894.00,0.66
4892.00,0.66
4890.00,0.66
4888.00,0.66
4886.00,0.66
4884.00,0.66
4882.00,0.66
4880.00,0.66
4878.00,0.66
4876.00,0.66
4874.00,0.66
4872.00,0.67
4870.00,0.67
4868.00,0.67
4866.00,0.67
4864.00,0.67
4862.00,0.67
4860.00,0.67
4858.00,0.67
4856.00,0.67
4854.00,0.67
4852.00,0.67
4850.00,0.67
4848.00,0.67
4846.00,0.67
4844.00,0.67
4842.00,0.68
4840.00,0.68
4838.00,0.68
4836.00,0.68
4834.00,0.68
4832.00,0.68
4830.00,0.68
4828.00,0.68
4826.00,0.68
4824.00,0.68
4822.00,0.68
4820.00,0.68
4818.00,0.69
4816.00,0.69
4814.00,0.69
4812.00,0.69
4810.00,0.69
4808.00,0.69
4806.00,0.69
4804.00,0.69
4802.00,0.69
4800.00,0.69
4798.00,0.69
4796.00,0.70
4794.00,0.70
4792.00,0.70
4790.00,0.70
4788.00,0.70
4786.00,0.70
4784.00,0.70
4782.00,0.70
4780.00,0.70
4778.00,0.70
4776.00,0.71
4774.00,0.71
4772.00,0.71
4770.00,0.71
4768.00,0.71
4766.00,0.71
4764.00,0.71
4762.00,0.71
4760.00,0.71
4758.00,0.71
4756.00,0.71
4754.00,0.71
4752.00,0.71
4750.00,0.72
4748.00,0.72
4746.00,0.72
4744.00,0.72
4742.00,0.72
4740.00,0.72
4738.00,0.72
4736.00,0.72
4734.00,0.72
4732.00,0.72
4730.00,0.72
4728.00,0.72
4726.00,0.72
4724.00,0.72
4722.00,0.73
4720.00,0.73
4718.00,0.73
4716.00,0.73
4714.00,0.73
4712.00,0.73
4710.00,0.73
4708.00,0.73
4706.00,0.73
4704.00,0.73
4702.00,0.73
4700.00,0.73
4698.00,0.73
4696.00,0.73
4694.00,0.74
4692.00,0.74
4690.00,0.74
4688.00,0.74
4686.00,0.74
4684.00,0.74
4682.00,0.74
4680.00,0.74
4678.00,0.74
4676.00,0.74
4674.00,0.74
4672.00,0.74
4670.00,0.74
4668.00,0.74
4666.00,0.74
4664.00,0.74
4662.00,0.74
4660.00,0.74
4658.00,0.74
4656.00,0.74
4654.00,0.74
4652.00,0.74
4650.00,0.74
4648.00,0.74
4646.00,0.74
4644.00,0.75
4642.00,0.75
4640.00,0.75
4638.00,0.75
4636.00,0.75
4634.00,0.75
4632.00,0.75
4630.00,0.75
4628.00,0.75
4626.00,0.75
4624.00,0.75
4622.00,0.75
4620.00,0.75
4618.00,0.75
4616.00,0.75
4614.00,0.75
4612.00,0.75
4610.00,0.75
4608.00,0.75
4606.00,0.75
4604.00,0.75
4602.00,0.75
4600.00,0.75
4598.00,0.75
4596.00,0.75
4594.00,0.75
4592.00,0.75
4590.00,0.75
4588.00,0.75
4586.00,0.75
4584.00,0.75
4582.00,0.75
4580.00,0.75
4578.00,0.75
4576.00,0.75
4574.00,0.75
4572.00,0.75
4570.00,0.75
4568.00,0.75
4566.00,0.75
4564.00,0.75
4562.00,0.75
4560.00,0.75
4558.00,0.75
4556.00,0.75
4554.00,0.75
4552.00,0.75
4550.00,0.75
4548.00,0.75
4546.00,0.75
4544.00,0.75
4542.00,0.75
4540.00,0.75
4538.00,0.75
4536.00,0.75
4534.00,0.75
4532.00,0.75
4530.00,0.75
4528.00,0.75
4526.00,0.75
4524.00,0.75
4522.00,0.75
4520.00,0.75
4518.00,0.75
4516.00,0.75
4514.00,0.75
4512.00,0.75
4510.00,0.75
4508.00,0.75
4506.00,0.75
4504.00,0.75
4502.00,0.75
4500.00,0.75
4498.00,0.75
4496.00,0.75
4494.00,0.75
4492.00,0.75
4490.00,0.75
4488.00,0.75
4486.00,0.75
4484.00,0.75
4482.00,0.75
4480.00,0.75
4478.00,0.75
4476.00,0.75
4474.00,0.75
4472.00,0.75
4470.00,0.75
4468.00,0.74
4466.00,0.74
4464.00,0.74
4462.00,0.74
4460.00,0.74
4458.00,0.74
4456.00,0.74
4454.00,0.74
4452.00,0.73
4450.00,0.73
4448.00,0.73
4446.00,0.73
4444.00,0.72
4442.00,0.72
4440.00,0.72
4438.00,0.72
4436.00,0.71
4434.00,0.71
4432.00,0.71
4430.00,0.70
4428.00,0.70
4426.00,0.70
4424.00,0.70
4422.00,0.69
4420.00,0.69
4418.00,0.69
4416.00,0.69
4414.00,0.69
4412.00,0.69
4410.00,0.69
4408.00,0.69
4406.00,0.69
4404.00,0.69
4402.00,0.69
4400.00,0.69
4398.00,0.69
4396.00,0.69
4394.00,0.69
4392.00,0.70
4390.00,0.70
4388.00,0.70
4386.00,0.70
4384.00,0.70
4382.00,0.70
4380.00,0.71
4378.00,0.71
4376.00,0.71
4374.00,0.71
4372.00,0.71
4370.00,0.71
4368.00,0.71
4366.00,0.71
4364.00,0.71
4362.00,0.71
4360.00,0.71
4358.00,0.70
4356.00,0.70
4354.00,0.70
4352.00,0.70
4350.00,0.70
4348.00,0.70
4346.00,0.70
4344.00,0.70
4342.00,0.70
4340.00,0.70
4338.00,0.70
4336.00,0.70
4334.00,0.70
4332.00,0.70
4330.00,0.71
4328.00,0.71
4326.00,0.71
4324.00,0.71
4322.00,0.71
4320.00,0.72
4318.00,0.72
4316.00,0.72
4314.00,0.72
4312.00,0.73
4310.00,0.73
4308.00,0.73
4306.00,0.73
4304.00,0.74
4302.00,0.74
4300.00,0.74
4298.00,0.74
4296.00,0.74
4294.00,0.74
4292.00,0.74
4290.00,0.74
4288.00,0.74
4286.00,0.75
4284.00,0.75
4282.00,0.74
4280.00,0.74
4278.00,0.74
4276.00,0.74
4274.00,0.74
4272.00,0.74
4270.00,0.74
4268.00,0.74
4266.00,0.74
4264.00,0.74
4262.00,0.74
4260.00,0.74
4258.00,0.74
4256.00,0.74
4254.00,0.74
4252.00,0.74
4250.00,0.74
4248.00,0.74
4246.00,0.74
4244.00,0.74
4242.00,0.74
4240.00,0.74
4238.00,0.74
4236.00,0.74
4234.00,0.75
4232.00,0.75
4230.00,0.75
4228.00,0.75
4226.00,0.75
4224.00,0.75
4222.00,0.75
4220.00,0.75
4218.00,0.75
4216.00,0.75
4214.00,0.75
4212.00,0.75
4210.00,0.75
4208.00,0.75
4206.00,0.75
4204.00,0.75
4202.00,0.75
4200.00,0.75
4198.00,0.75
4196.00,0.75
4194.00,0.75
4192.00,0.75
4190.00,0.75
4188.00,0.75
4186.00,0.75
4184.00,0.75
4182.00,0.75
4180.00,0.75
4178.00,0.75
4176.00,0.75
4174.00,0.75
4172.00,0.75
4170.00,0.75
4168.00,0.75
4166.00,0.75
4164.00,0.75
4162.00,0.75
4160.00,0.75
4158.00,0.75
4156.00,0.75
4154.00,0.75
4152.00,0.75
4150.00,0.75
4148.00,0.75
4146.00,0.75
4144.00,0.75
4142.00,0.75
4140.00,0.75
4138.00,0.75
4136.00,0.75
4134.00,0.75
4132.00,0.75
4130.00,0.75
4128.00,0.75
4126.00,0.75
4124.00,0.75
4122.00,0.75
4120.00,0.74
4118.00,0.74
4116.00,0.74
4114.00,0.74
4112.00,0.74
4110.00,0.74
4108.00,0.74
4106.00,0.74
4104.00,0.74
4102.00,0.74
4100.00,0.74
4098.00,0.74
4096.00,0.74
4094.00,0.74
4092.00,0.73
4090.00,0.73
4088.00,0.73
4086.00,0.73
4084.00,0.73
4082.00,0.73
4080.00,0.73
4078.00,0.73
4076.00,0.73
4074.00,0.73
4072.00,0.73
4070.00,0.73
4068.00,0.73
4066.00,0.73
4064.00,0.73
4062.00,0.73
4060.00,0.73
4058.00,0.73
4056.00,0.73
4054.00,0.73
4052.00,0.73
4050.00,0.73
4048.00,0.73
4046.00,0.73
4044.00,0.73
4042.00,0.73
4040.00,0.73
4038.00,0.73
4036.00,0.73
4034.00,0.73
4032.00,0.73
4030.00,0.73
4028.00,0.73
4026.00,0.73
4024.00,0.73
4022.00,0.73
4020.00,0.74
4018.00,0.74
4016.00,0.74
4014.00,0.74
4012.00,0.74
4010.00,0.74
4008.00,0.74
4006.00,0.74
4004.00,0.75
4002.00,0.75
4000.00,0.75
