创建为新数据集,样品 1287 用户 Administrator 日期 星期六, 八月 17 2019
cm-1,%T
10000.00,0.87
9998.00,0.87
9996.00,0.87
9994.00,0.87
9992.00,0.87
9990.00,0.87
9988.00,0.87
9986.00,0.87
9984.00,0.87
9982.00,0.87
9980.00,0.87
9978.00,0.87
9976.00,0.86
9974.00,0.86
9972.00,0.86
9970.00,0.86
9968.00,0.86
9966.00,0.86
9964.00,0.86
9962.00,0.86
9960.00,0.85
9958.00,0.85
9956.00,0.85
9954.00,0.85
9952.00,0.85
9950.00,0.85
9948.00,0.85
9946.00,0.85
9944.00,0.85
9942.00,0.85
9940.00,0.85
9938.00,0.85
9936.00,0.85
9934.00,0.85
9932.00,0.85
9930.00,0.85
9928.00,0.85
9926.00,0.85
9924.00,0.85
9922.00,0.85
9920.00,0.85
9918.00,0.85
9916.00,0.85
9914.00,0.85
9912.00,0.85
9910.00,0.85
9908.00,0.85
9906.00,0.85
9904.00,0.85
9902.00,0.85
9900.00,0.85
9898.00,0.85
9896.00,0.85
9894.00,0.85
9892.00,0.85
9890.00,0.85
9888.00,0.85
9886.00,0.86
9884.00,0.86
9882.00,0.86
9880.00,0.86
9878.00,0.86
9876.00,0.86
9874.00,0.86
9872.00,0.86
9870.00,0.86
9868.00,0.86
9866.00,0.86
9864.00,0.86
9862.00,0.86
9860.00,0.86
9858.00,0.86
9856.00,0.86
9854.00,0.86
9852.00,0.86
9850.00,0.86
9848.00,0.86
9846.00,0.86
9844.00,0.86
9842.00,0.86
9840.00,0.87
9838.00,0.86
9836.00,0.86
9834.00,0.86
9832.00,0.86
9830.00,0.86
9828.00,0.86
9826.00,0.86
9824.00,0.86
9822.00,0.86
9820.00,0.86
9818.00,0.86
9816.00,0.86
9814.00,0.85
9812.00,0.85
9810.00,0.85
9808.00,0.85
9806.00,0.85
9804.00,0.85
9802.00,0.85
9800.00,0.85
9798.00,0.85
9796.00,0.85
9794.00,0.85
9792.00,0.85
9790.00,0.85
9788.00,0.85
9786.00,0.85
9784.00,0.85
9782.00,0.86
9780.00,0.86
9778.00,0.86
9776.00,0.86
9774.00,0.86
9772.00,0.86
9770.00,0.86
9768.00,0.86
9766.00,0.86
9764.00,0.86
9762.00,0.86
9760.00,0.86
9758.00,0.86
9756.00,0.86
9754.00,0.86
9752.00,0.86
9750.00,0.86
9748.00,0.86
9746.00,0.86
9744.00,0.86
9742.00,0.86
9740.00,0.86
9738.00,0.86
9736.00,0.86
9734.00,0.86
9732.00,0.86
9730.00,0.85
9728.00,0.85
9726.00,0.85
9724.00,0.85
9722.00,0.85
9720.00,0.85
9718.00,0.85
9716.00,0.85
9714.00,0.85
9712.00,0.85
9710.00,0.85
9708.00,0.85
9706.00,0.86
9704.00,0.86
9702.00,0.86
9700.00,0.86
9698.00,0.86
9696.00,0.86
9694.00,0.86
9692.00,0.86
9690.00,0.86
9688.00,0.86
9686.00,0.86
9684.00,0.85
9682.00,0.85
9680.00,0.85
9678.00,0.85
9676.00,0.85
9674.00,0.85
9672.00,0.85
9670.00,0.85
9668.00,0.85
9666.00,0.85
9664.00,0.85
9662.00,0.85
9660.00,0.85
9658.00,0.85
9656.00,0.84
9654.00,0.84
9652.00,0.84
9650.00,0.84
9648.00,0.84
9646.00,0.84
9644.00,0.84
9642.00,0.84
9640.00,0.84
9638.00,0.84
9636.00,0.84
9634.00,0.84
9632.00,0.84
9630.00,0.84
9628.00,0.84
9626.00,0.84
9624.00,0.84
9622.00,0.84
9620.00,0.84
9618.00,0.84
9616.00,0.84
9614.00,0.84
9612.00,0.84
9610.00,0.84
9608.00,0.84
9606.00,0.84
9604.00,0.84
9602.00,0.84
9600.00,0.84
9598.00,0.84
9596.00,0.84
9594.00,0.84
9592.00,0.84
9590.00,0.84
9588.00,0.84
9586.00,0.84
9584.00,0.84
9582.00,0.84
9580.00,0.84
9578.00,0.84
9576.00,0.85
9574.00,0.85
9572.00,0.85
9570.00,0.85
9568.00,0.85
9566.00,0.85
9564.00,0.85
9562.00,0.85
9560.00,0.85
9558.00,0.85
9556.00,0.85
9554.00,0.85
9552.00,0.86
9550.00,0.86
9548.00,0.86
9546.00,0.86
9544.00,0.86
9542.00,0.86
9540.00,0.86
9538.00,0.86
9536.00,0.86
9534.00,0.86
9532.00,0.86
9530.00,0.86
9528.00,0.86
9526.00,0.86
9524.00,0.86
9522.00,0.86
9520.00,0.86
9518.00,0.86
9516.00,0.86
9514.00,0.86
9512.00,0.86
9510.00,0.86
9508.00,0.86
9506.00,0.86
9504.00,0.86
9502.00,0.86
9500.00,0.86
9498.00,0.86
9496.00,0.86
9494.00,0.86
9492.00,0.86
9490.00,0.86
9488.00,0.85
9486.00,0.85
9484.00,0.85
9482.00,0.85
9480.00,0.85
9478.00,0.85
9476.00,0.85
9474.00,0.85
9472.00,0.84
9470.00,0.84
9468.00,0.84
9466.00,0.84
9464.00,0.84
9462.00,0.84
9460.00,0.84
9458.00,0.84
9456.00,0.84
9454.00,0.84
9452.00,0.84
9450.00,0.84
9448.00,0.84
9446.00,0.84
9444.00,0.84
9442.00,0.84
9440.00,0.84
9438.00,0.84
9436.00,0.84
9434.00,0.84
9432.00,0.84
9430.00,0.84
9428.00,0.84
9426.00,0.84
9424.00,0.84
9422.00,0.84
9420.00,0.84
9418.00,0.84
9416.00,0.84
9414.00,0.84
9412.00,0.84
9410.00,0.84
9408.00,0.84
9406.00,0.85
9404.00,0.85
9402.00,0.85
9400.00,0.85
9398.00,0.85
9396.00,0.85
9394.00,0.85
9392.00,0.85
9390.00,0.85
9388.00,0.85
9386.00,0.86
9384.00,0.86
9382.00,0.86
9380.00,0.86
9378.00,0.86
9376.00,0.86
9374.00,0.86
9372.00,0.86
9370.00,0.86
9368.00,0.86
9366.00,0.86
9364.00,0.86
9362.00,0.86
9360.00,0.86
9358.00,0.86
9356.00,0.86
9354.00,0.86
9352.00,0.86
9350.00,0.86
9348.00,0.86
9346.00,0.86
9344.00,0.86
9342.00,0.86
9340.00,0.86
9338.00,0.86
9336.00,0.86
9334.00,0.86
9332.00,0.85
9330.00,0.85
9328.00,0.85
9326.00,0.85
9324.00,0.85
9322.00,0.85
9320.00,0.85
9318.00,0.85
9316.00,0.85
9314.00,0.85
9312.00,0.85
9310.00,0.85
9308.00,0.85
9306.00,0.85
9304.00,0.85
9302.00,0.85
9300.00,0.85
9298.00,0.85
9296.00,0.85
9294.00,0.85
9292.00,0.85
9290.00,0.85
9288.00,0.86
9286.00,0.86
9284.00,0.86
9282.00,0.86
9280.00,0.86
9278.00,0.86
9276.00,0.86
9274.00,0.86
9272.00,0.86
9270.00,0.86
9268.00,0.86
9266.00,0.86
9264.00,0.86
9262.00,0.86
9260.00,0.86
9258.00,0.86
9256.00,0.86
9254.00,0.85
9252.00,0.85
9250.00,0.85
9248.00,0.85
9246.00,0.85
9244.00,0.85
9242.00,0.85
9240.00,0.85
9238.00,0.85
9236.00,0.85
9234.00,0.85
9232.00,0.85
9230.00,0.85
9228.00,0.85
9226.00,0.85
9224.00,0.85
9222.00,0.85
9220.00,0.85
9218.00,0.86
9216.00,0.86
9214.00,0.86
9212.00,0.86
9210.00,0.86
9208.00,0.86
9206.00,0.86
9204.00,0.86
9202.00,0.85
9200.00,0.85
9198.00,0.85
9196.00,0.85
9194.00,0.85
9192.00,0.85
9190.00,0.85
9188.00,0.85
9186.00,0.85
9184.00,0.85
9182.00,0.85
9180.00,0.85
9178.00,0.85
9176.00,0.85
9174.00,0.85
9172.00,0.85
9170.00,0.85
9168.00,0.85
9166.00,0.85
9164.00,0.85
9162.00,0.85
9160.00,0.85
9158.00,0.85
9156.00,0.85
9154.00,0.85
9152.00,0.84
9150.00,0.84
9148.00,0.84
9146.00,0.84
9144.00,0.84
9142.00,0.84
9140.00,0.83
9138.00,0.83
9136.00,0.83
9134.00,0.83
9132.00,0.83
9130.00,0.83
9128.00,0.83
9126.00,0.83
9124.00,0.83
9122.00,0.83
9120.00,0.83
9118.00,0.83
9116.00,0.84
9114.00,0.84
9112.00,0.84
9110.00,0.84
9108.00,0.84
9106.00,0.84
9104.00,0.84
9102.00,0.84
9100.00,0.84
9098.00,0.84
9096.00,0.84
9094.00,0.84
9092.00,0.84
9090.00,0.84
9088.00,0.85
9086.00,0.85
9084.00,0.85
9082.00,0.85
9080.00,0.85
9078.00,0.85
9076.00,0.85
9074.00,0.85
9072.00,0.85
9070.00,0.86
9068.00,0.86
9066.00,0.86
9064.00,0.86
9062.00,0.86
9060.00,0.86
9058.00,0.85
9056.00,0.85
9054.00,0.85
9052.00,0.85
9050.00,0.85
9048.00,0.85
9046.00,0.85
9044.00,0.85
9042.00,0.85
9040.00,0.84
9038.00,0.84
9036.00,0.84
9034.00,0.84
9032.00,0.84
9030.00,0.84
9028.00,0.84
9026.00,0.84
9024.00,0.84
9022.00,0.84
9020.00,0.84
9018.00,0.84
9016.00,0.84
9014.00,0.85
9012.00,0.85
9010.00,0.85
9008.00,0.85
9006.00,0.85
9004.00,0.85
9002.00,0.85
9000.00,0.85
8998.00,0.85
8996.00,0.85
8994.00,0.85
8992.00,0.85
8990.00,0.85
8988.00,0.85
8986.00,0.85
8984.00,0.85
8982.00,0.85
8980.00,0.85
8978.00,0.85
8976.00,0.85
8974.00,0.85
8972.00,0.85
8970.00,0.85
8968.00,0.84
8966.00,0.84
8964.00,0.84
8962.00,0.84
8960.00,0.84
8958.00,0.84
8956.00,0.84
8954.00,0.84
8952.00,0.84
8950.00,0.84
8948.00,0.84
8946.00,0.84
8944.00,0.84
8942.00,0.85
8940.00,0.85
8938.00,0.85
8936.00,0.85
8934.00,0.85
8932.00,0.85
8930.00,0.85
8928.00,0.85
8926.00,0.85
8924.00,0.85
8922.00,0.85
8920.00,0.85
8918.00,0.85
8916.00,0.85
8914.00,0.85
8912.00,0.85
8910.00,0.85
8908.00,0.85
8906.00,0.85
8904.00,0.85
8902.00,0.85
8900.00,0.85
8898.00,0.85
8896.00,0.85
8894.00,0.85
8892.00,0.85
8890.00,0.85
8888.00,0.85
8886.00,0.85
8884.00,0.85
8882.00,0.85
8880.00,0.85
8878.00,0.85
8876.00,0.85
8874.00,0.85
8872.00,0.85
8870.00,0.85
8868.00,0.85
8866.00,0.85
8864.00,0.85
8862.00,0.84
8860.00,0.84
8858.00,0.84
8856.00,0.84
8854.00,0.84
8852.00,0.84
8850.00,0.84
8848.00,0.84
8846.00,0.84
8844.00,0.84
8842.00,0.84
8840.00,0.84
8838.00,0.84
8836.00,0.84
8834.00,0.84
8832.00,0.84
8830.00,0.84
8828.00,0.84
8826.00,0.84
8824.00,0.85
8822.00,0.85
8820.00,0.85
8818.00,0.85
8816.00,0.85
8814.00,0.85
8812.00,0.85
8810.00,0.85
8808.00,0.85
8806.00,0.85
8804.00,0.85
8802.00,0.85
8800.00,0.85
8798.00,0.85
8796.00,0.85
8794.00,0.85
8792.00,0.85
8790.00,0.85
8788.00,0.85
8786.00,0.85
8784.00,0.85
8782.00,0.85
8780.00,0.85
8778.00,0.85
8776.00,0.85
8774.00,0.85
8772.00,0.85
8770.00,0.85
8768.00,0.85
8766.00,0.85
8764.00,0.85
8762.00,0.85
8760.00,0.85
8758.00,0.85
8756.00,0.85
8754.00,0.85
8752.00,0.85
8750.00,0.85
8748.00,0.85
8746.00,0.85
8744.00,0.85
8742.00,0.85
8740.00,0.85
8738.00,0.86
8736.00,0.86
8734.00,0.86
8732.00,0.86
8730.00,0.86
8728.00,0.86
8726.00,0.86
8724.00,0.86
8722.00,0.86
8720.00,0.86
8718.00,0.86
8716.00,0.86
8714.00,0.86
8712.00,0.86
8710.00,0.86
8708.00,0.86
8706.00,0.86
8704.00,0.86
8702.00,0.86
8700.00,0.86
8698.00,0.86
8696.00,0.86
8694.00,0.86
8692.00,0.86
8690.00,0.86
8688.00,0.86
8686.00,0.86
8684.00,0.86
8682.00,0.86
8680.00,0.86
8678.00,0.86
8676.00,0.86
8674.00,0.86
8672.00,0.86
8670.00,0.86
8668.00,0.86
8666.00,0.86
8664.00,0.86
8662.00,0.86
8660.00,0.86
8658.00,0.86
8656.00,0.85
8654.00,0.85
8652.00,0.85
8650.00,0.85
8648.00,0.85
8646.00,0.85
8644.00,0.85
8642.00,0.85
8640.00,0.85
8638.00,0.84
8636.00,0.84
8634.00,0.84
8632.00,0.85
8630.00,0.85
8628.00,0.85
8626.00,0.85
8624.00,0.85
8622.00,0.85
8620.00,0.85
8618.00,0.85
8616.00,0.85
8614.00,0.85
8612.00,0.85
8610.00,0.85
8608.00,0.85
8606.00,0.85
8604.00,0.85
8602.00,0.85
8600.00,0.85
8598.00,0.85
8596.00,0.85
8594.00,0.85
8592.00,0.85
8590.00,0.84
8588.00,0.84
8586.00,0.84
8584.00,0.84
8582.00,0.84
8580.00,0.84
8578.00,0.84
8576.00,0.84
8574.00,0.84
8572.00,0.84
8570.00,0.84
8568.00,0.83
8566.00,0.83
8564.00,0.83
8562.00,0.83
8560.00,0.83
8558.00,0.83
8556.00,0.83
8554.00,0.83
8552.00,0.83
8550.00,0.83
8548.00,0.83
8546.00,0.83
8544.00,0.83
8542.00,0.83
8540.00,0.83
8538.00,0.83
8536.00,0.83
8534.00,0.83
8532.00,0.83
8530.00,0.83
8528.00,0.83
8526.00,0.83
8524.00,0.83
8522.00,0.83
8520.00,0.83
8518.00,0.83
8516.00,0.83
8514.00,0.83
8512.00,0.83
8510.00,0.83
8508.00,0.83
8506.00,0.83
8504.00,0.84
8502.00,0.84
8500.00,0.84
8498.00,0.84
8496.00,0.84
8494.00,0.84
8492.00,0.84
8490.00,0.84
8488.00,0.84
8486.00,0.84
8484.00,0.84
8482.00,0.84
8480.00,0.84
8478.00,0.84
8476.00,0.84
8474.00,0.84
8472.00,0.84
8470.00,0.84
8468.00,0.84
8466.00,0.84
8464.00,0.84
8462.00,0.84
8460.00,0.84
8458.00,0.84
8456.00,0.84
8454.00,0.85
8452.00,0.85
8450.00,0.85
8448.00,0.85
8446.00,0.85
8444.00,0.85
8442.00,0.85
8440.00,0.85
8438.00,0.85
8436.00,0.85
8434.00,0.85
8432.00,0.85
8430.00,0.85
8428.00,0.85
8426.00,0.85
8424.00,0.85
8422.00,0.85
8420.00,0.85
8418.00,0.85
8416.00,0.85
8414.00,0.85
8412.00,0.85
8410.00,0.85
8408.00,0.85
8406.00,0.84
8404.00,0.84
8402.00,0.84
8400.00,0.84
8398.00,0.84
8396.00,0.84
8394.00,0.84
8392.00,0.84
8390.00,0.84
8388.00,0.84
8386.00,0.84
8384.00,0.84
8382.00,0.84
8380.00,0.84
8378.00,0.84
8376.00,0.84
8374.00,0.84
8372.00,0.84
8370.00,0.84
8368.00,0.84
8366.00,0.84
8364.00,0.84
8362.00,0.84
8360.00,0.84
8358.00,0.84
8356.00,0.84
8354.00,0.84
8352.00,0.84
8350.00,0.84
8348.00,0.84
8346.00,0.85
8344.00,0.85
8342.00,0.85
8340.00,0.85
8338.00,0.85
8336.00,0.85
8334.00,0.85
8332.00,0.85
8330.00,0.85
8328.00,0.85
8326.00,0.85
8324.00,0.85
8322.00,0.85
8320.00,0.85
8318.00,0.85
8316.00,0.85
8314.00,0.85
8312.00,0.85
8310.00,0.85
8308.00,0.85
8306.00,0.85
8304.00,0.85
8302.00,0.85
8300.00,0.85
8298.00,0.85
8296.00,0.85
8294.00,0.85
8292.00,0.85
8290.00,0.85
8288.00,0.85
8286.00,0.85
8284.00,0.85
8282.00,0.85
8280.00,0.85
8278.00,0.85
8276.00,0.85
8274.00,0.85
8272.00,0.85
8270.00,0.85
8268.00,0.85
8266.00,0.85
8264.00,0.85
8262.00,0.86
8260.00,0.86
8258.00,0.86
8256.00,0.86
8254.00,0.86
8252.00,0.86
8250.00,0.86
8248.00,0.86
8246.00,0.86
8244.00,0.86
8242.00,0.86
8240.00,0.86
8238.00,0.86
8236.00,0.86
8234.00,0.86
8232.00,0.86
8230.00,0.86
8228.00,0.86
8226.00,0.86
8224.00,0.85
8222.00,0.85
8220.00,0.85
8218.00,0.85
8216.00,0.85
8214.00,0.85
8212.00,0.85
8210.00,0.85
8208.00,0.85
8206.00,0.85
8204.00,0.85
8202.00,0.85
8200.00,0.85
8198.00,0.85
8196.00,0.85
8194.00,0.85
8192.00,0.85
8190.00,0.85
8188.00,0.85
8186.00,0.85
8184.00,0.85
8182.00,0.85
8180.00,0.85
8178.00,0.85
8176.00,0.85
8174.00,0.85
8172.00,0.85
8170.00,0.85
8168.00,0.85
8166.00,0.85
8164.00,0.85
8162.00,0.85
8160.00,0.85
8158.00,0.85
8156.00,0.85
8154.00,0.85
8152.00,0.85
8150.00,0.85
8148.00,0.85
8146.00,0.85
8144.00,0.85
8142.00,0.85
8140.00,0.85
8138.00,0.85
8136.00,0.85
8134.00,0.85
8132.00,0.85
8130.00,0.85
8128.00,0.85
8126.00,0.85
8124.00,0.85
8122.00,0.85
8120.00,0.85
8118.00,0.85
8116.00,0.85
8114.00,0.85
8112.00,0.85
8110.00,0.85
8108.00,0.85
8106.00,0.85
8104.00,0.85
8102.00,0.85
8100.00,0.85
8098.00,0.85
8096.00,0.85
8094.00,0.85
8092.00,0.85
8090.00,0.85
8088.00,0.85
8086.00,0.85
8084.00,0.85
8082.00,0.85
8080.00,0.86
8078.00,0.86
8076.00,0.86
8074.00,0.86
8072.00,0.86
8070.00,0.86
8068.00,0.86
8066.00,0.86
8064.00,0.86
8062.00,0.86
8060.00,0.86
8058.00,0.86
8056.00,0.86
8054.00,0.86
8052.00,0.86
8050.00,0.86
8048.00,0.86
8046.00,0.86
8044.00,0.86
8042.00,0.86
8040.00,0.86
8038.00,0.86
8036.00,0.86
8034.00,0.86
8032.00,0.86
8030.00,0.86
8028.00,0.86
8026.00,0.86
8024.00,0.86
8022.00,0.86
8020.00,0.86
8018.00,0.86
8016.00,0.86
8014.00,0.85
8012.00,0.85
8010.00,0.85
8008.00,0.85
8006.00,0.85
8004.00,0.85
8002.00,0.85
8000.00,0.85
7998.00,0.85
7996.00,0.85
7994.00,0.85
7992.00,0.85
7990.00,0.85
7988.00,0.85
7986.00,0.85
7984.00,0.85
7982.00,0.85
7980.00,0.85
7978.00,0.85
7976.00,0.85
7974.00,0.85
7972.00,0.85
7970.00,0.85
7968.00,0.85
7966.00,0.85
7964.00,0.85
7962.00,0.85
7960.00,0.86
7958.00,0.86
7956.00,0.86
7954.00,0.86
7952.00,0.86
7950.00,0.86
7948.00,0.86
7946.00,0.86
7944.00,0.86
7942.00,0.86
7940.00,0.86
7938.00,0.86
7936.00,0.86
7934.00,0.86
7932.00,0.86
7930.00,0.86
7928.00,0.86
7926.00,0.86
7924.00,0.86
7922.00,0.86
7920.00,0.86
7918.00,0.87
7916.00,0.87
7914.00,0.87
7912.00,0.87
7910.00,0.87
7908.00,0.87
7906.00,0.87
7904.00,0.87
7902.00,0.87
7900.00,0.87
7898.00,0.87
7896.00,0.87
7894.00,0.87
7892.00,0.87
7890.00,0.87
7888.00,0.86
7886.00,0.86
7884.00,0.86
7882.00,0.86
7880.00,0.86
7878.00,0.86
7876.00,0.86
7874.00,0.86
7872.00,0.86
7870.00,0.86
7868.00,0.86
7866.00,0.86
7864.00,0.86
7862.00,0.86
7860.00,0.86
7858.00,0.86
7856.00,0.86
7854.00,0.86
7852.00,0.86
7850.00,0.86
7848.00,0.86
7846.00,0.86
7844.00,0.86
7842.00,0.86
7840.00,0.86
7838.00,0.86
7836.00,0.86
7834.00,0.86
7832.00,0.86
7830.00,0.86
7828.00,0.86
7826.00,0.86
7824.00,0.86
7822.00,0.86
7820.00,0.86
7818.00,0.86
7816.00,0.86
7814.00,0.86
7812.00,0.86
7810.00,0.86
7808.00,0.86
7806.00,0.86
7804.00,0.86
7802.00,0.86
7800.00,0.86
7798.00,0.86
7796.00,0.86
7794.00,0.86
7792.00,0.86
7790.00,0.86
7788.00,0.86
7786.00,0.86
7784.00,0.86
7782.00,0.86
7780.00,0.86
7778.00,0.86
7776.00,0.86
7774.00,0.86
7772.00,0.86
7770.00,0.86
7768.00,0.86
7766.00,0.86
7764.00,0.86
7762.00,0.86
7760.00,0.87
7758.00,0.87
7756.00,0.87
7754.00,0.87
7752.00,0.87
7750.00,0.87
7748.00,0.87
7746.00,0.87
7744.00,0.87
7742.00,0.86
7740.00,0.86
7738.00,0.86
7736.00,0.86
7734.00,0.86
7732.00,0.86
7730.00,0.86
7728.00,0.86
7726.00,0.86
7724.00,0.86
7722.00,0.86
7720.00,0.86
7718.00,0.86
7716.00,0.86
7714.00,0.86
7712.00,0.86
7710.00,0.86
7708.00,0.86
7706.00,0.86
7704.00,0.86
7702.00,0.86
7700.00,0.86
7698.00,0.86
7696.00,0.87
7694.00,0.87
7692.00,0.87
7690.00,0.87
7688.00,0.87
7686.00,0.87
7684.00,0.87
7682.00,0.87
7680.00,0.87
7678.00,0.87
7676.00,0.87
7674.00,0.87
7672.00,0.87
7670.00,0.87
7668.00,0.87
7666.00,0.87
7664.00,0.86
7662.00,0.86
7660.00,0.86
7658.00,0.86
7656.00,0.86
7654.00,0.86
7652.00,0.86
7650.00,0.86
7648.00,0.86
7646.00,0.86
7644.00,0.86
7642.00,0.86
7640.00,0.86
7638.00,0.86
7636.00,0.86
7634.00,0.86
7632.00,0.86
7630.00,0.86
7628.00,0.86
7626.00,0.86
7624.00,0.87
7622.00,0.87
7620.00,0.87
7618.00,0.87
7616.00,0.87
7614.00,0.87
7612.00,0.87
7610.00,0.87
7608.00,0.87
7606.00,0.87
7604.00,0.87
7602.00,0.87
7600.00,0.87
7598.00,0.87
7596.00,0.87
7594.00,0.87
7592.00,0.87
7590.00,0.87
7588.00,0.87
7586.00,0.87
7584.00,0.87
7582.00,0.87
7580.00,0.87
7578.00,0.87
7576.00,0.87
7574.00,0.87
7572.00,0.87
7570.00,0.87
7568.00,0.87
7566.00,0.87
7564.00,0.87
7562.00,0.87
7560.00,0.87
7558.00,0.87
7556.00,0.87
7554.00,0.87
7552.00,0.87
7550.00,0.87
7548.00,0.87
7546.00,0.87
7544.00,0.87
7542.00,0.87
7540.00,0.87
7538.00,0.87
7536.00,0.87
7534.00,0.87
7532.00,0.87
7530.00,0.87
7528.00,0.87
7526.00,0.87
7524.00,0.87
7522.00,0.87
7520.00,0.86
7518.00,0.86
7516.00,0.86
7514.00,0.86
7512.00,0.86
7510.00,0.86
7508.00,0.86
7506.00,0.86
7504.00,0.86
7502.00,0.86
7500.00,0.86
7498.00,0.86
7496.00,0.86
7494.00,0.86
7492.00,0.86
7490.00,0.86
7488.00,0.86
7486.00,0.86
7484.00,0.86
7482.00,0.86
7480.00,0.86
7478.00,0.86
7476.00,0.86
7474.00,0.86
7472.00,0.86
7470.00,0.86
7468.00,0.86
7466.00,0.86
7464.00,0.86
7462.00,0.86
7460.00,0.86
7458.00,0.86
7456.00,0.86
7454.00,0.86
7452.00,0.86
7450.00,0.86
7448.00,0.86
7446.00,0.86
7444.00,0.86
7442.00,0.86
7440.00,0.86
7438.00,0.86
7436.00,0.86
7434.00,0.86
7432.00,0.86
7430.00,0.86
7428.00,0.86
7426.00,0.86
7424.00,0.86
7422.00,0.86
7420.00,0.86
7418.00,0.86
7416.00,0.86
7414.00,0.86
7412.00,0.86
7410.00,0.86
7408.00,0.86
7406.00,0.85
7404.00,0.85
7402.00,0.85
7400.00,0.85
7398.00,0.85
7396.00,0.85
7394.00,0.85
7392.00,0.85
7390.00,0.85
7388.00,0.85
7386.00,0.85
7384.00,0.85
7382.00,0.85
7380.00,0.85
7378.00,0.85
7376.00,0.85
7374.00,0.85
7372.00,0.85
7370.00,0.85
7368.00,0.85
7366.00,0.85
7364.00,0.85
7362.00,0.85
7360.00,0.85
7358.00,0.85
7356.00,0.84
7354.00,0.84
7352.00,0.84
7350.00,0.84
7348.00,0.84
7346.00,0.84
7344.00,0.84
7342.00,0.84
7340.00,0.84
7338.00,0.84
7336.00,0.84
7334.00,0.84
7332.00,0.84
7330.00,0.84
7328.00,0.84
7326.00,0.84
7324.00,0.84
7322.00,0.84
7320.00,0.84
7318.00,0.84
7316.00,0.84
7314.00,0.84
7312.00,0.84
7310.00,0.84
7308.00,0.84
7306.00,0.84
7304.00,0.84
7302.00,0.84
7300.00,0.84
7298.00,0.84
7296.00,0.84
7294.00,0.84
7292.00,0.84
7290.00,0.84
7288.00,0.84
7286.00,0.84
7284.00,0.84
7282.00,0.84
7280.00,0.84
7278.00,0.84
7276.00,0.84
7274.00,0.84
7272.00,0.84
7270.00,0.84
7268.00,0.84
7266.00,0.84
7264.00,0.84
7262.00,0.84
7260.00,0.84
7258.00,0.84
7256.00,0.84
7254.00,0.84
7252.00,0.84
7250.00,0.83
7248.00,0.83
7246.00,0.83
7244.00,0.83
7242.00,0.83
7240.00,0.83
7238.00,0.83
7236.00,0.83
7234.00,0.83
7232.00,0.82
7230.00,0.82
7228.00,0.82
7226.00,0.82
7224.00,0.82
7222.00,0.82
7220.00,0.82
7218.00,0.82
7216.00,0.81
7214.00,0.81
7212.00,0.81
7210.00,0.81
7208.00,0.81
7206.00,0.81
7204.00,0.81
7202.00,0.80
7200.00,0.80
7198.00,0.80
7196.00,0.80
7194.00,0.80
7192.00,0.80
7190.00,0.79
7188.00,0.79
7186.00,0.79
7184.00,0.79
7182.00,0.79
7180.00,0.79
7178.00,0.78
7176.00,0.78
7174.00,0.78
7172.00,0.78
7170.00,0.78
7168.00,0.78
7166.00,0.77
7164.00,0.77
7162.00,0.77
7160.00,0.77
7158.00,0.77
7156.00,0.77
7154.00,0.77
7152.00,0.77
7150.00,0.77
7148.00,0.77
7146.00,0.76
7144.00,0.76
7142.00,0.76
7140.00,0.76
7138.00,0.76
7136.00,0.76
7134.00,0.76
7132.00,0.76
7130.00,0.75
7128.00,0.75
7126.00,0.75
7124.00,0.75
7122.00,0.75
7120.00,0.75
7118.00,0.75
7116.00,0.74
7114.00,0.74
7112.00,0.74
7110.00,0.74
7108.00,0.74
7106.00,0.74
7104.00,0.74
7102.00,0.73
7100.00,0.73
7098.00,0.73
7096.00,0.73
7094.00,0.73
7092.00,0.73
7090.00,0.73
7088.00,0.73
7086.00,0.72
7084.00,0.72
7082.00,0.72
7080.00,0.72
7078.00,0.72
7076.00,0.72
7074.00,0.72
7072.00,0.72
7070.00,0.71
7068.00,0.71
7066.00,0.71
7064.00,0.71
7062.00,0.71
7060.00,0.71
7058.00,0.71
7056.00,0.71
7054.00,0.71
7052.00,0.71
7050.00,0.70
7048.00,0.70
7046.00,0.70
7044.00,0.70
7042.00,0.70
7040.00,0.70
7038.00,0.70
7036.00,0.70
7034.00,0.70
7032.00,0.70
7030.00,0.70
7028.00,0.70
7026.00,0.70
7024.00,0.70
7022.00,0.70
7020.00,0.70
7018.00,0.70
7016.00,0.70
7014.00,0.70
7012.00,0.70
7010.00,0.69
7008.00,0.69
7006.00,0.69
7004.00,0.69
7002.00,0.69
7000.00,0.69
6998.00,0.69
6996.00,0.69
6994.00,0.69
6992.00,0.69
6990.00,0.69
6988.00,0.69
6986.00,0.69
6984.00,0.69
6982.00,0.69
6980.00,0.69
6978.00,0.69
6976.00,0.69
6974.00,0.69
6972.00,0.69
6970.00,0.69
6968.00,0.69
6966.00,0.69
6964.00,0.69
6962.00,0.69
6960.00,0.68
6958.00,0.68
6956.00,0.68
6954.00,0.68
6952.00,0.68
6950.00,0.68
6948.00,0.68
6946.00,0.68
6944.00,0.68
6942.00,0.68
6940.00,0.68
6938.00,0.68
6936.00,0.68
6934.00,0.68
6932.00,0.68
6930.00,0.68
6928.00,0.68
6926.00,0.68
6924.00,0.68
6922.00,0.67
6920.00,0.67
6918.00,0.67
6916.00,0.67
6914.00,0.67
6912.00,0.67
6910.00,0.67
6908.00,0.67
6906.00,0.67
6904.00,0.67
6902.00,0.67
6900.00,0.67
6898.00,0.67
6896.00,0.67
6894.00,0.67
6892.00,0.67
6890.00,0.67
6888.00,0.67
6886.00,0.67
6884.00,0.67
6882.00,0.67
6880.00,0.67
6878.00,0.67
6876.00,0.67
6874.00,0.67
6872.00,0.67
6870.00,0.67
6868.00,0.67
6866.00,0.67
6864.00,0.67
6862.00,0.67
6860.00,0.67
6858.00,0.67
6856.00,0.67
6854.00,0.67
6852.00,0.67
6850.00,0.68
6848.00,0.68
6846.00,0.68
6844.00,0.68
6842.00,0.68
6840.00,0.68
6838.00,0.68
6836.00,0.68
6834.00,0.68
6832.00,0.68
6830.00,0.68
6828.00,0.68
6826.00,0.68
6824.00,0.68
6822.00,0.68
6820.00,0.68
6818.00,0.68
6816.00,0.68
6814.00,0.68
6812.00,0.68
6810.00,0.68
6808.00,0.68
6806.00,0.68
6804.00,0.68
6802.00,0.68
6800.00,0.68
6798.00,0.68
6796.00,0.69
6794.00,0.69
6792.00,0.69
6790.00,0.69
6788.00,0.69
6786.00,0.69
6784.00,0.69
6782.00,0.69
6780.00,0.69
6778.00,0.69
6776.00,0.69
6774.00,0.69
6772.00,0.69
6770.00,0.69
6768.00,0.69
6766.00,0.69
6764.00,0.69
6762.00,0.69
6760.00,0.69
6758.00,0.69
6756.00,0.69
6754.00,0.69
6752.00,0.69
6750.00,0.69
6748.00,0.70
6746.00,0.70
6744.00,0.70
6742.00,0.70
6740.00,0.70
6738.00,0.70
6736.00,0.70
6734.00,0.70
6732.00,0.70
6730.00,0.70
6728.00,0.71
6726.00,0.71
6724.00,0.71
6722.00,0.71
6720.00,0.71
6718.00,0.71
6716.00,0.71
6714.00,0.71
6712.00,0.71
6710.00,0.71
6708.00,0.71
6706.00,0.71
6704.00,0.72
6702.00,0.72
6700.00,0.72
6698.00,0.72
6696.00,0.72
6694.00,0.72
6692.00,0.72
6690.00,0.72
6688.00,0.72
6686.00,0.72
6684.00,0.72
6682.00,0.72
6680.00,0.73
6678.00,0.73
6676.00,0.73
6674.00,0.73
6672.00,0.73
6670.00,0.73
6668.00,0.73
6666.00,0.73
6664.00,0.73
6662.00,0.73
6660.00,0.73
6658.00,0.74
6656.00,0.74
6654.00,0.74
6652.00,0.74
6650.00,0.74
6648.00,0.74
6646.00,0.74
6644.00,0.74
6642.00,0.74
6640.00,0.74
6638.00,0.74
6636.00,0.74
6634.00,0.74
6632.00,0.74
6630.00,0.74
6628.00,0.74
6626.00,0.75
6624.00,0.75
6622.00,0.75
6620.00,0.75
6618.00,0.75
6616.00,0.75
6614.00,0.75
6612.00,0.75
6610.00,0.75
6608.00,0.75
6606.00,0.75
6604.00,0.75
6602.00,0.75
6600.00,0.75
6598.00,0.76
6596.00,0.76
6594.00,0.76
6592.00,0.76
6590.00,0.76
6588.00,0.76
6586.00,0.76
6584.00,0.76
6582.00,0.76
6580.00,0.76
6578.00,0.76
6576.00,0.76
6574.00,0.76
6572.00,0.76
6570.00,0.76
6568.00,0.76
6566.00,0.76
6564.00,0.76
6562.00,0.77
6560.00,0.77
6558.00,0.77
6556.00,0.77
6554.00,0.77
6552.00,0.77
6550.00,0.77
6548.00,0.77
6546.00,0.77
6544.00,0.77
6542.00,0.77
6540.00,0.77
6538.00,0.77
6536.00,0.77
6534.00,0.77
6532.00,0.77
6530.00,0.77
6528.00,0.78
6526.00,0.78
6524.00,0.78
6522.00,0.78
6520.00,0.78
6518.00,0.78
6516.00,0.78
6514.00,0.78
6512.00,0.78
6510.00,0.78
6508.00,0.78
6506.00,0.78
6504.00,0.78
6502.00,0.78
6500.00,0.78
6498.00,0.78
6496.00,0.78
6494.00,0.78
6492.00,0.78
6490.00,0.78
6488.00,0.79
6486.00,0.79
6484.00,0.79
6482.00,0.79
6480.00,0.79
6478.00,0.79
6476.00,0.79
6474.00,0.79
6472.00,0.79
6470.00,0.79
6468.00,0.79
6466.00,0.79
6464.00,0.79
6462.00,0.79
6460.00,0.79
6458.00,0.79
6456.00,0.80
6454.00,0.80
6452.00,0.80
6450.00,0.80
6448.00,0.80
6446.00,0.80
6444.00,0.80
6442.00,0.80
6440.00,0.80
6438.00,0.80
6436.00,0.80
6434.00,0.80
6432.00,0.80
6430.00,0.80
6428.00,0.80
6426.00,0.80
6424.00,0.80
6422.00,0.80
6420.00,0.80
6418.00,0.80
6416.00,0.80
6414.00,0.80
6412.00,0.80
6410.00,0.80
6408.00,0.80
6406.00,0.80
6404.00,0.80
6402.00,0.80
6400.00,0.80
6398.00,0.80
6396.00,0.80
6394.00,0.80
6392.00,0.80
6390.00,0.80
6388.00,0.80
6386.00,0.80
6384.00,0.80
6382.00,0.80
6380.00,0.80
6378.00,0.80
6376.00,0.80
6374.00,0.80
6372.00,0.80
6370.00,0.81
6368.00,0.81
6366.00,0.81
6364.00,0.81
6362.00,0.81
6360.00,0.81
6358.00,0.81
6356.00,0.81
6354.00,0.81
6352.00,0.81
6350.00,0.81
6348.00,0.81
6346.00,0.81
6344.00,0.81
6342.00,0.81
6340.00,0.81
6338.00,0.81
6336.00,0.81
6334.00,0.81
6332.00,0.81
6330.00,0.82
6328.00,0.82
6326.00,0.82
6324.00,0.82
6322.00,0.82
6320.00,0.82
6318.00,0.82
6316.00,0.82
6314.00,0.82
6312.00,0.82
6310.00,0.82
6308.00,0.82
6306.00,0.82
6304.00,0.82
6302.00,0.82
6300.00,0.82
6298.00,0.82
6296.00,0.82
6294.00,0.82
6292.00,0.82
6290.00,0.82
6288.00,0.82
6286.00,0.82
6284.00,0.83
6282.00,0.83
6280.00,0.83
6278.00,0.83
6276.00,0.83
6274.00,0.83
6272.00,0.83
6270.00,0.83
6268.00,0.83
6266.00,0.83
6264.00,0.83
6262.00,0.83
6260.00,0.83
6258.00,0.83
6256.00,0.83
6254.00,0.83
6252.00,0.83
6250.00,0.83
6248.00,0.83
6246.00,0.83
6244.00,0.83
6242.00,0.84
6240.00,0.84
6238.00,0.84
6236.00,0.84
6234.00,0.84
6232.00,0.84
6230.00,0.84
6228.00,0.84
6226.00,0.84
6224.00,0.84
6222.00,0.84
6220.00,0.84
6218.00,0.84
6216.00,0.84
6214.00,0.84
6212.00,0.84
6210.00,0.84
6208.00,0.84
6206.00,0.84
6204.00,0.84
6202.00,0.84
6200.00,0.84
6198.00,0.84
6196.00,0.84
6194.00,0.84
6192.00,0.84
6190.00,0.84
6188.00,0.84
6186.00,0.84
6184.00,0.84
6182.00,0.84
6180.00,0.84
6178.00,0.84
6176.00,0.85
6174.00,0.85
6172.00,0.85
6170.00,0.85
6168.00,0.85
6166.00,0.85
6164.00,0.85
6162.00,0.85
6160.00,0.85
6158.00,0.85
6156.00,0.85
6154.00,0.85
6152.00,0.85
6150.00,0.85
6148.00,0.85
6146.00,0.85
6144.00,0.85
6142.00,0.85
6140.00,0.85
6138.00,0.85
6136.00,0.85
6134.00,0.85
6132.00,0.85
6130.00,0.85
6128.00,0.85
6126.00,0.85
6124.00,0.85
6122.00,0.85
6120.00,0.85
6118.00,0.85
6116.00,0.85
6114.00,0.86
6112.00,0.86
6110.00,0.86
6108.00,0.86
6106.00,0.86
6104.00,0.86
6102.00,0.86
6100.00,0.86
6098.00,0.86
6096.00,0.86
6094.00,0.86
6092.00,0.86
6090.00,0.86
6088.00,0.86
6086.00,0.86
6084.00,0.86
6082.00,0.86
6080.00,0.86
6078.00,0.86
6076.00,0.86
6074.00,0.86
6072.00,0.86
6070.00,0.86
6068.00,0.86
6066.00,0.86
6064.00,0.86
6062.00,0.86
6060.00,0.86
6058.00,0.86
6056.00,0.87
6054.00,0.87
6052.00,0.87
6050.00,0.87
6048.00,0.87
6046.00,0.87
6044.00,0.87
6042.00,0.87
6040.00,0.87
6038.00,0.87
6036.00,0.87
6034.00,0.87
6032.00,0.87
6030.00,0.87
6028.00,0.87
6026.00,0.87
6024.00,0.87
6022.00,0.87
6020.00,0.87
6018.00,0.87
6016.00,0.87
6014.00,0.87
6012.00,0.87
6010.00,0.87
6008.00,0.87
6006.00,0.87
6004.00,0.87
6002.00,0.87
6000.00,0.87
5998.00,0.87
5996.00,0.87
5994.00,0.87
5992.00,0.87
5990.00,0.87
5988.00,0.87
5986.00,0.87
5984.00,0.87
5982.00,0.86
5980.00,0.86
5978.00,0.86
5976.00,0.86
5974.00,0.86
5972.00,0.86
5970.00,0.86
5968.00,0.86
5966.00,0.86
5964.00,0.86
5962.00,0.85
5960.00,0.85
5958.00,0.85
5956.00,0.85
5954.00,0.85
5952.00,0.85
5950.00,0.85
5948.00,0.85
5946.00,0.85
5944.00,0.85
5942.00,0.84
5940.00,0.84
5938.00,0.84
5936.00,0.84
5934.00,0.84
5932.00,0.84
5930.00,0.84
5928.00,0.84
5926.00,0.84
5924.00,0.84
5922.00,0.84
5920.00,0.84
5918.00,0.84
5916.00,0.84
5914.00,0.84
5912.00,0.84
5910.00,0.84
5908.00,0.84
5906.00,0.84
5904.00,0.84
5902.00,0.84
5900.00,0.84
5898.00,0.84
5896.00,0.84
5894.00,0.84
5892.00,0.84
5890.00,0.84
5888.00,0.84
5886.00,0.84
5884.00,0.84
5882.00,0.84
5880.00,0.84
5878.00,0.84
5876.00,0.84
5874.00,0.84
5872.00,0.85
5870.00,0.85
5868.00,0.85
5866.00,0.85
5864.00,0.85
5862.00,0.85
5860.00,0.85
5858.00,0.85
5856.00,0.85
5854.00,0.85
5852.00,0.85
5850.00,0.85
5848.00,0.85
5846.00,0.85
5844.00,0.85
5842.00,0.85
5840.00,0.85
5838.00,0.85
5836.00,0.85
5834.00,0.85
5832.00,0.85
5830.00,0.85
5828.00,0.85
5826.00,0.85
5824.00,0.85
5822.00,0.85
5820.00,0.85
5818.00,0.85
5816.00,0.85
5814.00,0.85
5812.00,0.85
5810.00,0.85
5808.00,0.85
5806.00,0.85
5804.00,0.85
5802.00,0.85
5800.00,0.85
5798.00,0.85
5796.00,0.85
5794.00,0.85
5792.00,0.85
5790.00,0.85
5788.00,0.85
5786.00,0.85
5784.00,0.85
5782.00,0.85
5780.00,0.85
5778.00,0.85
5776.00,0.85
5774.00,0.85
5772.00,0.85
5770.00,0.85
5768.00,0.85
5766.00,0.85
5764.00,0.85
5762.00,0.85
5760.00,0.85
5758.00,0.85
5756.00,0.85
5754.00,0.85
5752.00,0.85
5750.00,0.85
5748.00,0.85
5746.00,0.85
5744.00,0.85
5742.00,0.85
5740.00,0.85
5738.00,0.85
5736.00,0.85
5734.00,0.85
5732.00,0.86
5730.00,0.86
5728.00,0.86
5726.00,0.86
5724.00,0.86
5722.00,0.86
5720.00,0.86
5718.00,0.86
5716.00,0.86
5714.00,0.86
5712.00,0.86
5710.00,0.85
5708.00,0.85
5706.00,0.85
5704.00,0.85
5702.00,0.85
5700.00,0.85
5698.00,0.85
5696.00,0.85
5694.00,0.85
5692.00,0.85
5690.00,0.85
5688.00,0.85
5686.00,0.85
5684.00,0.85
5682.00,0.85
5680.00,0.85
5678.00,0.85
5676.00,0.85
5674.00,0.85
5672.00,0.85
5670.00,0.85
5668.00,0.85
5666.00,0.85
5664.00,0.85
5662.00,0.85
5660.00,0.85
5658.00,0.85
5656.00,0.85
5654.00,0.85
5652.00,0.85
5650.00,0.85
5648.00,0.85
5646.00,0.85
5644.00,0.85
5642.00,0.85
5640.00,0.85
5638.00,0.85
5636.00,0.85
5634.00,0.85
5632.00,0.86
5630.00,0.86
5628.00,0.86
5626.00,0.86
5624.00,0.86
5622.00,0.86
5620.00,0.86
5618.00,0.86
5616.00,0.86
5614.00,0.86
5612.00,0.86
5610.00,0.86
5608.00,0.86
5606.00,0.86
5604.00,0.86
5602.00,0.86
5600.00,0.86
5598.00,0.86
5596.00,0.86
5594.00,0.86
5592.00,0.86
5590.00,0.86
5588.00,0.86
5586.00,0.86
5584.00,0.86
5582.00,0.86
5580.00,0.86
5578.00,0.86
5576.00,0.86
5574.00,0.86
5572.00,0.86
5570.00,0.86
5568.00,0.86
5566.00,0.86
5564.00,0.86
5562.00,0.86
5560.00,0.86
5558.00,0.86
5556.00,0.86
5554.00,0.86
5552.00,0.86
5550.00,0.87
5548.00,0.87
5546.00,0.87
5544.00,0.87
5542.00,0.87
5540.00,0.87
5538.00,0.87
5536.00,0.87
5534.00,0.87
5532.00,0.87
5530.00,0.87
5528.00,0.87
5526.00,0.87
5524.00,0.87
5522.00,0.87
5520.00,0.87
5518.00,0.87
5516.00,0.87
5514.00,0.87
5512.00,0.87
5510.00,0.87
5508.00,0.87
5506.00,0.87
5504.00,0.87
5502.00,0.87
5500.00,0.87
5498.00,0.87
5496.00,0.87
5494.00,0.87
5492.00,0.87
5490.00,0.87
5488.00,0.87
5486.00,0.87
5484.00,0.87
5482.00,0.87
5480.00,0.87
5478.00,0.87
5476.00,0.87
5474.00,0.87
5472.00,0.87
5470.00,0.87
5468.00,0.87
5466.00,0.87
5464.00,0.87
5462.00,0.87
5460.00,0.87
5458.00,0.87
5456.00,0.87
5454.00,0.87
5452.00,0.87
5450.00,0.87
5448.00,0.87
5446.00,0.87
5444.00,0.87
5442.00,0.87
5440.00,0.87
5438.00,0.87
5436.00,0.87
5434.00,0.87
5432.00,0.87
5430.00,0.87
5428.00,0.87
5426.00,0.87
5424.00,0.87
5422.00,0.87
5420.00,0.87
5418.00,0.87
5416.00,0.87
5414.00,0.87
5412.00,0.87
5410.00,0.87
5408.00,0.87
5406.00,0.87
5404.00,0.87
5402.00,0.87
5400.00,0.87
5398.00,0.87
5396.00,0.87
5394.00,0.87
5392.00,0.87
5390.00,0.86
5388.00,0.86
5386.00,0.86
5384.00,0.86
5382.00,0.86
5380.00,0.86
5378.00,0.86
5376.00,0.86
5374.00,0.85
5372.00,0.85
5370.00,0.85
5368.00,0.85
5366.00,0.84
5364.00,0.84
5362.00,0.84
5360.00,0.84
5358.00,0.83
5356.00,0.83
5354.00,0.82
5352.00,0.82
5350.00,0.82
5348.00,0.81
5346.00,0.81
5344.00,0.80
5342.00,0.80
5340.00,0.80
5338.00,0.79
5336.00,0.79
5334.00,0.78
5332.00,0.78
5330.00,0.77
5328.00,0.77
5326.00,0.76
5324.00,0.76
5322.00,0.75
5320.00,0.74
5318.00,0.74
5316.00,0.73
5314.00,0.72
5312.00,0.72
5310.00,0.71
5308.00,0.70
5306.00,0.70
5304.00,0.69
5302.00,0.68
5300.00,0.68
5298.00,0.67
5296.00,0.66
5294.00,0.65
5292.00,0.65
5290.00,0.64
5288.00,0.63
5286.00,0.63
5284.00,0.62
5282.00,0.62
5280.00,0.61
5278.00,0.60
5276.00,0.60
5274.00,0.59
5272.00,0.59
5270.00,0.58
5268.00,0.58
5266.00,0.57
5264.00,0.57
5262.00,0.56
5260.00,0.56
5258.00,0.55
5256.00,0.55
5254.00,0.55
5252.00,0.54
5250.00,0.54
5248.00,0.54
5246.00,0.53
5244.00,0.53
5242.00,0.53
5240.00,0.53
5238.00,0.52
5236.00,0.52
5234.00,0.52
5232.00,0.52
5230.00,0.51
5228.00,0.51
5226.00,0.51
5224.00,0.51
5222.00,0.51
5220.00,0.50
5218.00,0.50
5216.00,0.50
5214.00,0.50
5212.00,0.50
5210.00,0.50
5208.00,0.50
5206.00,0.49
5204.00,0.49
5202.00,0.49
5200.00,0.49
5198.00,0.49
5196.00,0.49
5194.00,0.49
5192.00,0.49
5190.00,0.49
5188.00,0.49
5186.00,0.49
5184.00,0.49
5182.00,0.49
5180.00,0.49
5178.00,0.49
5176.00,0.49
5174.00,0.49
5172.00,0.49
5170.00,0.49
5168.00,0.49
5166.00,0.49
5164.00,0.49
5162.00,0.49
5160.00,0.49
5158.00,0.49
5156.00,0.49
5154.00,0.49
5152.00,0.49
5150.00,0.50
5148.00,0.50
5146.00,0.50
5144.00,0.50
5142.00,0.50
5140.00,0.50
5138.00,0.50
5136.00,0.50
5134.00,0.51
5132.00,0.51
5130.00,0.51
5128.00,0.51
5126.00,0.51
5124.00,0.51
5122.00,0.52
5120.00,0.52
5118.00,0.52
5116.00,0.52
5114.00,0.52
5112.00,0.52
5110.00,0.52
5108.00,0.53
5106.00,0.53
5104.00,0.53
5102.00,0.53
5100.00,0.53
5098.00,0.53
5096.00,0.54
5094.00,0.54
5092.00,0.54
5090.00,0.54
5088.00,0.54
5086.00,0.55
5084.00,0.55
5082.00,0.55
5080.00,0.55
5078.00,0.55
5076.00,0.56
5074.00,0.56
5072.00,0.56
5070.00,0.56
5068.00,0.56
5066.00,0.57
5064.00,0.57
5062.00,0.57
5060.00,0.57
5058.00,0.58
5056.00,0.58
5054.00,0.58
5052.00,0.58
5050.00,0.58
5048.00,0.59
5046.00,0.59
5044.00,0.59
5042.00,0.59
5040.00,0.59
5038.00,0.60
5036.00,0.60
5034.00,0.60
5032.00,0.60
5030.00,0.60
5028.00,0.61
5026.00,0.61
5024.00,0.61
5022.00,0.61
5020.00,0.61
5018.00,0.62
5016.00,0.62
5014.00,0.62
5012.00,0.62
5010.00,0.62
5008.00,0.62
5006.00,0.63
5004.00,0.63
5002.00,0.63
5000.00,0.63
4998.00,0.63
4996.00,0.63
4994.00,0.64
4992.00,0.64
4990.00,0.64
4988.00,0.64
4986.00,0.64
4984.00,0.65
4982.00,0.65
4980.00,0.65
4978.00,0.65
4976.00,0.65
4974.00,0.65
4972.00,0.66
4970.00,0.66
4968.00,0.66
4966.00,0.66
4964.00,0.66
4962.00,0.66
4960.00,0.67
4958.00,0.67
4956.00,0.67
4954.00,0.67
4952.00,0.67
4950.00,0.67
4948.00,0.68
4946.00,0.68
4944.00,0.68
4942.00,0.68
4940.00,0.68
4938.00,0.68
4936.00,0.68
4934.00,0.69
4932.00,0.69
4930.00,0.69
4928.00,0.69
4926.00,0.69
4924.00,0.69
4922.00,0.69
4920.00,0.70
4918.00,0.70
4916.00,0.70
4914.00,0.70
4912.00,0.70
4910.00,0.70
4908.00,0.70
4906.00,0.70
4904.00,0.71
4902.00,0.71
4900.00,0.71
4898.00,0.71
4896.00,0.71
4894.00,0.71
4892.00,0.71
4890.00,0.71
4888.00,0.71
4886.00,0.71
4884.00,0.72
4882.00,0.72
4880.00,0.72
4878.00,0.72
4876.00,0.72
4874.00,0.72
4872.00,0.72
4870.00,0.72
4868.00,0.72
4866.00,0.73
4864.00,0.73
4862.00,0.73
4860.00,0.73
4858.00,0.73
4856.00,0.73
4854.00,0.73
4852.00,0.73
4850.00,0.73
4848.00,0.74
4846.00,0.74
4844.00,0.74
4842.00,0.74
4840.00,0.74
4838.00,0.74
4836.00,0.74
4834.00,0.74
4832.00,0.75
4830.00,0.75
4828.00,0.75
4826.00,0.75
4824.00,0.75
4822.00,0.75
4820.00,0.75
4818.00,0.76
4816.00,0.76
4814.00,0.76
4812.00,0.76
4810.00,0.76
4808.00,0.76
4806.00,0.76
4804.00,0.76
4802.00,0.77
4800.00,0.77
4798.00,0.77
4796.00,0.77
4794.00,0.77
4792.00,0.77
4790.00,0.77
4788.00,0.78
4786.00,0.78
4784.00,0.78
4782.00,0.78
4780.00,0.78
4778.00,0.78
4776.00,0.78
4774.00,0.78
4772.00,0.79
4770.00,0.79
4768.00,0.79
4766.00,0.79
4764.00,0.79
4762.00,0.79
4760.00,0.79
4758.00,0.79
4756.00,0.79
4754.00,0.80
4752.00,0.80
4750.00,0.80
4748.00,0.80
4746.00,0.80
4744.00,0.80
4742.00,0.80
4740.00,0.81
4738.00,0.81
4736.00,0.81
4734.00,0.81
4732.00,0.81
4730.00,0.81
4728.00,0.82
4726.00,0.82
4724.00,0.82
4722.00,0.82
4720.00,0.82
4718.00,0.82
4716.00,0.82
4714.00,0.83
4712.00,0.83
4710.00,0.83
4708.00,0.83
4706.00,0.83
4704.00,0.83
4702.00,0.83
4700.00,0.83
4698.00,0.83
4696.00,0.83
4694.00,0.84
4692.00,0.84
4690.00,0.84
4688.00,0.84
4686.00,0.84
4684.00,0.84
4682.00,0.84
4680.00,0.84
4678.00,0.84
4676.00,0.84
4674.00,0.84
4672.00,0.84
4670.00,0.85
4668.00,0.85
4666.00,0.85
4664.00,0.85
4662.00,0.85
4660.00,0.85
4658.00,0.85
4656.00,0.85
4654.00,0.85
4652.00,0.85
4650.00,0.85
4648.00,0.85
4646.00,0.85
4644.00,0.85
4642.00,0.85
4640.00,0.86
4638.00,0.86
4636.00,0.86
4634.00,0.86
4632.00,0.86
4630.00,0.86
4628.00,0.86
4626.00,0.86
4624.00,0.86
4622.00,0.86
4620.00,0.86
4618.00,0.86
4616.00,0.86
4614.00,0.86
4612.00,0.86
4610.00,0.86
4608.00,0.86
4606.00,0.86
4604.00,0.86
4602.00,0.86
4600.00,0.86
4598.00,0.86
4596.00,0.87
4594.00,0.87
4592.00,0.87
4590.00,0.87
4588.00,0.87
4586.00,0.87
4584.00,0.87
4582.00,0.87
4580.00,0.87
4578.00,0.87
4576.00,0.87
4574.00,0.87
4572.00,0.87
4570.00,0.87
4568.00,0.87
4566.00,0.87
4564.00,0.87
4562.00,0.87
4560.00,0.87
4558.00,0.87
4556.00,0.87
4554.00,0.87
4552.00,0.87
4550.00,0.87
4548.00,0.87
4546.00,0.87
4544.00,0.87
4542.00,0.87
4540.00,0.87
4538.00,0.87
4536.00,0.87
4534.00,0.87
4532.00,0.87
4530.00,0.87
4528.00,0.87
4526.00,0.87
4524.00,0.87
4522.00,0.87
4520.00,0.87
4518.00,0.87
4516.00,0.87
4514.00,0.87
4512.00,0.87
4510.00,0.87
4508.00,0.87
4506.00,0.87
4504.00,0.87
4502.00,0.87
4500.00,0.87
4498.00,0.87
4496.00,0.87
4494.00,0.87
4492.00,0.87
4490.00,0.87
4488.00,0.87
4486.00,0.87
4484.00,0.87
4482.00,0.87
4480.00,0.87
4478.00,0.87
4476.00,0.87
4474.00,0.87
4472.00,0.87
4470.00,0.87
4468.00,0.86
4466.00,0.86
4464.00,0.86
4462.00,0.86
4460.00,0.86
4458.00,0.85
4456.00,0.85
4454.00,0.85
4452.00,0.85
4450.00,0.84
4448.00,0.84
4446.00,0.83
4444.00,0.83
4442.00,0.83
4440.00,0.82
4438.00,0.82
4436.00,0.81
4434.00,0.81
4432.00,0.80
4430.00,0.80
4428.00,0.80
4426.00,0.79
4424.00,0.79
4422.00,0.78
4420.00,0.78
4418.00,0.78
4416.00,0.78
4414.00,0.78
4412.00,0.78
4410.00,0.78
4408.00,0.78
4406.00,0.78
4404.00,0.78
4402.00,0.78
4400.00,0.78
4398.00,0.78
4396.00,0.78
4394.00,0.79
4392.00,0.79
4390.00,0.79
4388.00,0.79
4386.00,0.80
4384.00,0.80
4382.00,0.80
4380.00,0.80
4378.00,0.80
4376.00,0.80
4374.00,0.80
4372.00,0.80
4370.00,0.80
4368.00,0.80
4366.00,0.80
4364.00,0.80
4362.00,0.80
4360.00,0.80
4358.00,0.79
4356.00,0.79
4354.00,0.79
4352.00,0.79
4350.00,0.79
4348.00,0.79
4346.00,0.79
4344.00,0.79
4342.00,0.79
4340.00,0.79
4338.00,0.79
4336.00,0.79
4334.00,0.79
4332.00,0.79
4330.00,0.80
4328.00,0.80
4326.00,0.80
4324.00,0.81
4322.00,0.81
4320.00,0.81
4318.00,0.82
4316.00,0.82
4314.00,0.83
4312.00,0.83
4310.00,0.83
4308.00,0.84
4306.00,0.84
4304.00,0.84
4302.00,0.85
4300.00,0.85
4298.00,0.85
4296.00,0.85
4294.00,0.86
4292.00,0.86
4290.00,0.86
4288.00,0.86
4286.00,0.86
4284.00,0.86
4282.00,0.86
4280.00,0.86
4278.00,0.86
4276.00,0.86
4274.00,0.86
4272.00,0.86
4270.00,0.86
4268.00,0.86
4266.00,0.86
4264.00,0.86
4262.00,0.85
4260.00,0.85
4258.00,0.85
4256.00,0.85
4254.00,0.85
4252.00,0.85
4250.00,0.86
4248.00,0.86
4246.00,0.86
4244.00,0.86
4242.00,0.86
4240.00,0.86
4238.00,0.86
4236.00,0.86
4234.00,0.86
4232.00,0.86
4230.00,0.86
4228.00,0.86
4226.00,0.86
4224.00,0.87
4222.00,0.87
4220.00,0.87
4218.00,0.87
4216.00,0.87
4214.00,0.87
4212.00,0.87
4210.00,0.87
4208.00,0.87
4206.00,0.87
4204.00,0.87
4202.00,0.87
4200.00,0.87
4198.00,0.87
4196.00,0.87
4194.00,0.87
4192.00,0.87
4190.00,0.87
4188.00,0.87
4186.00,0.87
4184.00,0.87
4182.00,0.87
4180.00,0.87
4178.00,0.87
4176.00,0.87
4174.00,0.87
4172.00,0.87
4170.00,0.87
4168.00,0.87
4166.00,0.87
4164.00,0.87
4162.00,0.87
4160.00,0.87
4158.00,0.87
4156.00,0.87
4154.00,0.86
4152.00,0.86
4150.00,0.86
4148.00,0.86
4146.00,0.86
4144.00,0.86
4142.00,0.86
4140.00,0.86
4138.00,0.86
4136.00,0.86
4134.00,0.86
4132.00,0.86
4130.00,0.86
4128.00,0.86
4126.00,0.86
4124.00,0.86
4122.00,0.86
4120.00,0.86
4118.00,0.86
4116.00,0.86
4114.00,0.86
4112.00,0.86
4110.00,0.86
4108.00,0.86
4106.00,0.86
4104.00,0.86
4102.00,0.86
4100.00,0.86
4098.00,0.86
4096.00,0.86
4094.00,0.86
4092.00,0.85
4090.00,0.85
4088.00,0.85
4086.00,0.85
4084.00,0.85
4082.00,0.85
4080.00,0.85
4078.00,0.85
4076.00,0.85
4074.00,0.84
4072.00,0.84
4070.00,0.84
4068.00,0.84
4066.00,0.84
4064.00,0.84
4062.00,0.84
4060.00,0.84
4058.00,0.84
4056.00,0.84
4054.00,0.84
4052.00,0.84
4050.00,0.84
4048.00,0.85
4046.00,0.85
4044.00,0.85
4042.00,0.85
4040.00,0.85
4038.00,0.85
4036.00,0.85
4034.00,0.85
4032.00,0.85
4030.00,0.85
4028.00,0.85
4026.00,0.86
4024.00,0.86
4022.00,0.86
4020.00,0.86
4018.00,0.86
4016.00,0.86
4014.00,0.86
4012.00,0.86
4010.00,0.86
4008.00,0.87
4006.00,0.87
4004.00,0.87
4002.00,0.87
4000.00,0.87
