创建为新数据集,样品 434 用户 Administrator 日期 星期日, 七月 15 2018
cm-1,%T
10000.00,0.96
9999.00,0.96
9998.00,0.96
9997.00,0.96
9996.00,0.96
9995.00,0.96
9994.00,0.96
9993.00,0.96
9992.00,0.95
9991.00,0.95
9990.00,0.95
9989.00,0.94
9988.00,0.94
9987.00,0.94
9986.00,0.93
9985.00,0.93
9984.00,0.92
9983.00,0.92
9982.00,0.92
9981.00,0.91
9980.00,0.91
9979.00,0.91
9978.00,0.91
9977.00,0.91
9976.00,0.90
9975.00,0.90
9974.00,0.90
9973.00,0.90
9972.00,0.90
9971.00,0.91
9970.00,0.91
9969.00,0.91
9968.00,0.91
9967.00,0.91
9966.00,0.91
9965.00,0.91
9964.00,0.92
9963.00,0.92
9962.00,0.92
9961.00,0.92
9960.00,0.92
9959.00,0.92
9958.00,0.93
9957.00,0.93
9956.00,0.93
9955.00,0.93
9954.00,0.93
9953.00,0.93
9952.00,0.93
9951.00,0.93
9950.00,0.93
9949.00,0.94
9948.00,0.94
9947.00,0.94
9946.00,0.94
9945.00,0.94
9944.00,0.94
9943.00,0.94
9942.00,0.94
9941.00,0.94
9940.00,0.94
9939.00,0.94
9938.00,0.94
9937.00,0.94
9936.00,0.94
9935.00,0.94
9934.00,0.94
9933.00,0.94
9932.00,0.94
9931.00,0.94
9930.00,0.94
9929.00,0.94
9928.00,0.94
9927.00,0.94
9926.00,0.94
9925.00,0.94
9924.00,0.94
9923.00,0.94
9922.00,0.94
9921.00,0.94
9920.00,0.94
9919.00,0.94
9918.00,0.95
9917.00,0.95
9916.00,0.95
9915.00,0.95
9914.00,0.95
9913.00,0.95
9912.00,0.95
9911.00,0.95
9910.00,0.95
9909.00,0.95
9908.00,0.94
9907.00,0.94
9906.00,0.94
9905.00,0.94
9904.00,0.94
9903.00,0.93
9902.00,0.93
9901.00,0.93
9900.00,0.93
9899.00,0.92
9898.00,0.92
9897.00,0.92
9896.00,0.92
9895.00,0.92
9894.00,0.92
9893.00,0.92
9892.00,0.92
9891.00,0.92
9890.00,0.92
9889.00,0.92
9888.00,0.93
9887.00,0.93
9886.00,0.93
9885.00,0.93
9884.00,0.93
9883.00,0.93
9882.00,0.93
9881.00,0.92
9880.00,0.92
9879.00,0.92
9878.00,0.92
9877.00,0.92
9876.00,0.92
9875.00,0.92
9874.00,0.91
9873.00,0.91
9872.00,0.91
9871.00,0.91
9870.00,0.91
9869.00,0.91
9868.00,0.91
9867.00,0.91
9866.00,0.91
9865.00,0.91
9864.00,0.91
9863.00,0.92
9862.00,0.92
9861.00,0.92
9860.00,0.92
9859.00,0.93
9858.00,0.93
9857.00,0.93
9856.00,0.94
9855.00,0.94
9854.00,0.94
9853.00,0.94
9852.00,0.95
9851.00,0.95
9850.00,0.95
9849.00,0.95
9848.00,0.95
9847.00,0.95
9846.00,0.95
9845.00,0.95
9844.00,0.94
9843.00,0.94
9842.00,0.94
9841.00,0.94
9840.00,0.94
9839.00,0.93
9838.00,0.93
9837.00,0.93
9836.00,0.93
9835.00,0.92
9834.00,0.92
9833.00,0.92
9832.00,0.92
9831.00,0.91
9830.00,0.91
9829.00,0.91
9828.00,0.91
9827.00,0.91
9826.00,0.91
9825.00,0.91
9824.00,0.91
9823.00,0.91
9822.00,0.91
9821.00,0.91
9820.00,0.92
9819.00,0.92
9818.00,0.92
9817.00,0.92
9816.00,0.93
9815.00,0.93
9814.00,0.93
9813.00,0.94
9812.00,0.94
9811.00,0.94
9810.00,0.94
9809.00,0.94
9808.00,0.94
9807.00,0.94
9806.00,0.94
9805.00,0.94
9804.00,0.94
9803.00,0.94
9802.00,0.94
9801.00,0.94
9800.00,0.93
9799.00,0.93
9798.00,0.93
9797.00,0.93
9796.00,0.92
9795.00,0.92
9794.00,0.92
9793.00,0.91
9792.00,0.91
9791.00,0.91
9790.00,0.91
9789.00,0.91
9788.00,0.90
9787.00,0.90
9786.00,0.90
9785.00,0.90
9784.00,0.90
9783.00,0.91
9782.00,0.91
9781.00,0.91
9780.00,0.91
9779.00,0.91
9778.00,0.91
9777.00,0.91
9776.00,0.92
9775.00,0.92
9774.00,0.92
9773.00,0.92
9772.00,0.92
9771.00,0.92
9770.00,0.93
9769.00,0.93
9768.00,0.93
9767.00,0.93
9766.00,0.93
9765.00,0.94
9764.00,0.94
9763.00,0.94
9762.00,0.94
9761.00,0.95
9760.00,0.95
9759.00,0.95
9758.00,0.95
9757.00,0.95
9756.00,0.96
9755.00,0.96
9754.00,0.96
9753.00,0.96
9752.00,0.96
9751.00,0.96
9750.00,0.96
9749.00,0.96
9748.00,0.96
9747.00,0.96
9746.00,0.96
9745.00,0.96
9744.00,0.96
9743.00,0.96
9742.00,0.96
9741.00,0.96
9740.00,0.95
9739.00,0.95
9738.00,0.95
9737.00,0.95
9736.00,0.95
9735.00,0.95
9734.00,0.95
9733.00,0.95
9732.00,0.95
9731.00,0.95
9730.00,0.94
9729.00,0.94
9728.00,0.94
9727.00,0.94
9726.00,0.94
9725.00,0.94
9724.00,0.94
9723.00,0.94
9722.00,0.93
9721.00,0.93
9720.00,0.93
9719.00,0.93
9718.00,0.93
9717.00,0.93
9716.00,0.93
9715.00,0.93
9714.00,0.93
9713.00,0.93
9712.00,0.93
9711.00,0.93
9710.00,0.93
9709.00,0.93
9708.00,0.93
9707.00,0.93
9706.00,0.93
9705.00,0.93
9704.00,0.94
9703.00,0.94
9702.00,0.94
9701.00,0.94
9700.00,0.94
9699.00,0.95
9698.00,0.95
9697.00,0.95
9696.00,0.95
9695.00,0.95
9694.00,0.95
9693.00,0.95
9692.00,0.95
9691.00,0.95
9690.00,0.95
9689.00,0.95
9688.00,0.95
9687.00,0.95
9686.00,0.95
9685.00,0.95
9684.00,0.94
9683.00,0.94
9682.00,0.94
9681.00,0.94
9680.00,0.94
9679.00,0.93
9678.00,0.93
9677.00,0.93
9676.00,0.93
9675.00,0.93
9674.00,0.93
9673.00,0.93
9672.00,0.93
9671.00,0.93
9670.00,0.93
9669.00,0.93
9668.00,0.93
9667.00,0.93
9666.00,0.93
9665.00,0.93
9664.00,0.93
9663.00,0.93
9662.00,0.93
9661.00,0.93
9660.00,0.93
9659.00,0.93
9658.00,0.93
9657.00,0.93
9656.00,0.93
9655.00,0.93
9654.00,0.93
9653.00,0.93
9652.00,0.94
9651.00,0.94
9650.00,0.94
9649.00,0.94
9648.00,0.94
9647.00,0.94
9646.00,0.93
9645.00,0.93
9644.00,0.93
9643.00,0.93
9642.00,0.93
9641.00,0.93
9640.00,0.93
9639.00,0.93
9638.00,0.93
9637.00,0.92
9636.00,0.92
9635.00,0.92
9634.00,0.92
9633.00,0.93
9632.00,0.93
9631.00,0.93
9630.00,0.93
9629.00,0.93
9628.00,0.93
9627.00,0.93
9626.00,0.93
9625.00,0.93
9624.00,0.93
9623.00,0.93
9622.00,0.93
9621.00,0.93
9620.00,0.93
9619.00,0.93
9618.00,0.93
9617.00,0.93
9616.00,0.93
9615.00,0.93
9614.00,0.93
9613.00,0.93
9612.00,0.93
9611.00,0.93
9610.00,0.93
9609.00,0.93
9608.00,0.93
9607.00,0.93
9606.00,0.93
9605.00,0.93
9604.00,0.93
9603.00,0.93
9602.00,0.93
9601.00,0.93
9600.00,0.93
9599.00,0.94
9598.00,0.94
9597.00,0.94
9596.00,0.94
9595.00,0.94
9594.00,0.94
9593.00,0.95
9592.00,0.95
9591.00,0.95
9590.00,0.95
9589.00,0.95
9588.00,0.95
9587.00,0.95
9586.00,0.95
9585.00,0.95
9584.00,0.96
9583.00,0.96
9582.00,0.96
9581.00,0.96
9580.00,0.96
9579.00,0.96
9578.00,0.95
9577.00,0.95
9576.00,0.95
9575.00,0.95
9574.00,0.95
9573.00,0.95
9572.00,0.95
9571.00,0.95
9570.00,0.95
9569.00,0.95
9568.00,0.94
9567.00,0.94
9566.00,0.94
9565.00,0.94
9564.00,0.94
9563.00,0.94
9562.00,0.94
9561.00,0.94
9560.00,0.94
9559.00,0.94
9558.00,0.94
9557.00,0.94
9556.00,0.94
9555.00,0.94
9554.00,0.94
9553.00,0.94
9552.00,0.94
9551.00,0.94
9550.00,0.94
9549.00,0.94
9548.00,0.94
9547.00,0.94
9546.00,0.94
9545.00,0.94
9544.00,0.94
9543.00,0.93
9542.00,0.93
9541.00,0.93
9540.00,0.93
9539.00,0.93
9538.00,0.93
9537.00,0.92
9536.00,0.92
9535.00,0.92
9534.00,0.92
9533.00,0.92
9532.00,0.92
9531.00,0.92
9530.00,0.92
9529.00,0.92
9528.00,0.92
9527.00,0.92
9526.00,0.92
9525.00,0.92
9524.00,0.92
9523.00,0.93
9522.00,0.93
9521.00,0.93
9520.00,0.93
9519.00,0.93
9518.00,0.93
9517.00,0.93
9516.00,0.93
9515.00,0.93
9514.00,0.93
9513.00,0.94
9512.00,0.94
9511.00,0.94
9510.00,0.94
9509.00,0.94
9508.00,0.95
9507.00,0.95
9506.00,0.95
9505.00,0.95
9504.00,0.95
9503.00,0.95
9502.00,0.95
9501.00,0.95
9500.00,0.95
9499.00,0.95
9498.00,0.95
9497.00,0.95
9496.00,0.95
9495.00,0.95
9494.00,0.95
9493.00,0.94
9492.00,0.94
9491.00,0.94
9490.00,0.94
9489.00,0.94
9488.00,0.94
9487.00,0.94
9486.00,0.94
9485.00,0.93
9484.00,0.93
9483.00,0.93
9482.00,0.93
9481.00,0.93
9480.00,0.93
9479.00,0.93
9478.00,0.93
9477.00,0.93
9476.00,0.93
9475.00,0.93
9474.00,0.93
9473.00,0.92
9472.00,0.92
9471.00,0.92
9470.00,0.92
9469.00,0.92
9468.00,0.92
9467.00,0.92
9466.00,0.92
9465.00,0.92
9464.00,0.92
9463.00,0.92
9462.00,0.92
9461.00,0.92
9460.00,0.92
9459.00,0.92
9458.00,0.92
9457.00,0.92
9456.00,0.93
9455.00,0.93
9454.00,0.93
9453.00,0.93
9452.00,0.94
9451.00,0.94
9450.00,0.94
9449.00,0.94
9448.00,0.94
9447.00,0.94
9446.00,0.94
9445.00,0.95
9444.00,0.95
9443.00,0.95
9442.00,0.95
9441.00,0.95
9440.00,0.95
9439.00,0.95
9438.00,0.95
9437.00,0.94
9436.00,0.94
9435.00,0.94
9434.00,0.94
9433.00,0.94
9432.00,0.94
9431.00,0.94
9430.00,0.94
9429.00,0.94
9428.00,0.94
9427.00,0.94
9426.00,0.94
9425.00,0.94
9424.00,0.94
9423.00,0.94
9422.00,0.94
9421.00,0.94
9420.00,0.94
9419.00,0.95
9418.00,0.95
9417.00,0.95
9416.00,0.95
9415.00,0.95
9414.00,0.95
9413.00,0.95
9412.00,0.95
9411.00,0.95
9410.00,0.95
9409.00,0.95
9408.00,0.94
9407.00,0.94
9406.00,0.94
9405.00,0.94
9404.00,0.94
9403.00,0.94
9402.00,0.93
9401.00,0.93
9400.00,0.93
9399.00,0.93
9398.00,0.93
9397.00,0.93
9396.00,0.93
9395.00,0.93
9394.00,0.92
9393.00,0.92
9392.00,0.92
9391.00,0.92
9390.00,0.92
9389.00,0.92
9388.00,0.92
9387.00,0.92
9386.00,0.92
9385.00,0.92
9384.00,0.92
9383.00,0.91
9382.00,0.91
9381.00,0.91
9380.00,0.91
9379.00,0.91
9378.00,0.91
9377.00,0.91
9376.00,0.91
9375.00,0.91
9374.00,0.91
9373.00,0.91
9372.00,0.91
9371.00,0.91
9370.00,0.91
9369.00,0.91
9368.00,0.91
9367.00,0.91
9366.00,0.91
9365.00,0.92
9364.00,0.92
9363.00,0.92
9362.00,0.92
9361.00,0.92
9360.00,0.93
9359.00,0.93
9358.00,0.93
9357.00,0.93
9356.00,0.94
9355.00,0.94
9354.00,0.94
9353.00,0.94
9352.00,0.94
9351.00,0.95
9350.00,0.95
9349.00,0.95
9348.00,0.95
9347.00,0.95
9346.00,0.95
9345.00,0.95
9344.00,0.96
9343.00,0.96
9342.00,0.96
9341.00,0.96
9340.00,0.96
9339.00,0.96
9338.00,0.96
9337.00,0.96
9336.00,0.96
9335.00,0.96
9334.00,0.96
9333.00,0.96
9332.00,0.96
9331.00,0.96
9330.00,0.95
9329.00,0.95
9328.00,0.95
9327.00,0.95
9326.00,0.95
9325.00,0.94
9324.00,0.94
9323.00,0.94
9322.00,0.94
9321.00,0.94
9320.00,0.94
9319.00,0.94
9318.00,0.94
9317.00,0.94
9316.00,0.94
9315.00,0.94
9314.00,0.94
9313.00,0.95
9312.00,0.95
9311.00,0.95
9310.00,0.95
9309.00,0.95
9308.00,0.95
9307.00,0.96
9306.00,0.96
9305.00,0.96
9304.00,0.96
9303.00,0.96
9302.00,0.95
9301.00,0.95
9300.00,0.95
9299.00,0.95
9298.00,0.95
9297.00,0.94
9296.00,0.94
9295.00,0.94
9294.00,0.94
9293.00,0.93
9292.00,0.93
9291.00,0.93
9290.00,0.93
9289.00,0.92
9288.00,0.92
9287.00,0.92
9286.00,0.92
9285.00,0.92
9284.00,0.92
9283.00,0.91
9282.00,0.91
9281.00,0.91
9280.00,0.91
9279.00,0.91
9278.00,0.91
9277.00,0.91
9276.00,0.91
9275.00,0.90
9274.00,0.90
9273.00,0.90
9272.00,0.90
9271.00,0.90
9270.00,0.91
9269.00,0.91
9268.00,0.91
9267.00,0.91
9266.00,0.91
9265.00,0.91
9264.00,0.91
9263.00,0.91
9262.00,0.92
9261.00,0.92
9260.00,0.92
9259.00,0.92
9258.00,0.92
9257.00,0.92
9256.00,0.92
9255.00,0.92
9254.00,0.93
9253.00,0.93
9252.00,0.93
9251.00,0.93
9250.00,0.93
9249.00,0.93
9248.00,0.93
9247.00,0.93
9246.00,0.93
9245.00,0.93
9244.00,0.93
9243.00,0.92
9242.00,0.92
9241.00,0.92
9240.00,0.92
9239.00,0.92
9238.00,0.92
9237.00,0.92
9236.00,0.92
9235.00,0.92
9234.00,0.92
9233.00,0.92
9232.00,0.92
9231.00,0.93
9230.00,0.93
9229.00,0.93
9228.00,0.93
9227.00,0.93
9226.00,0.93
9225.00,0.93
9224.00,0.93
9223.00,0.93
9222.00,0.94
9221.00,0.94
9220.00,0.94
9219.00,0.94
9218.00,0.94
9217.00,0.94
9216.00,0.94
9215.00,0.95
9214.00,0.95
9213.00,0.95
9212.00,0.95
9211.00,0.95
9210.00,0.95
9209.00,0.96
9208.00,0.96
9207.00,0.96
9206.00,0.96
9205.00,0.96
9204.00,0.96
9203.00,0.96
9202.00,0.96
9201.00,0.96
9200.00,0.96
9199.00,0.96
9198.00,0.96
9197.00,0.96
9196.00,0.96
9195.00,0.96
9194.00,0.95
9193.00,0.95
9192.00,0.95
9191.00,0.95
9190.00,0.95
9189.00,0.95
9188.00,0.95
9187.00,0.95
9186.00,0.95
9185.00,0.95
9184.00,0.95
9183.00,0.95
9182.00,0.95
9181.00,0.95
9180.00,0.95
9179.00,0.95
9178.00,0.96
9177.00,0.96
9176.00,0.96
9175.00,0.96
9174.00,0.96
9173.00,0.96
9172.00,0.96
9171.00,0.96
9170.00,0.96
9169.00,0.96
9168.00,0.96
9167.00,0.96
9166.00,0.96
9165.00,0.95
9164.00,0.95
9163.00,0.95
9162.00,0.95
9161.00,0.95
9160.00,0.95
9159.00,0.95
9158.00,0.95
9157.00,0.95
9156.00,0.95
9155.00,0.95
9154.00,0.95
9153.00,0.95
9152.00,0.95
9151.00,0.95
9150.00,0.95
9149.00,0.95
9148.00,0.95
9147.00,0.94
9146.00,0.94
9145.00,0.94
9144.00,0.94
9143.00,0.94
9142.00,0.94
9141.00,0.94
9140.00,0.94
9139.00,0.94
9138.00,0.94
9137.00,0.94
9136.00,0.94
9135.00,0.94
9134.00,0.94
9133.00,0.94
9132.00,0.94
9131.00,0.94
9130.00,0.94
9129.00,0.94
9128.00,0.94
9127.00,0.94
9126.00,0.94
9125.00,0.94
9124.00,0.94
9123.00,0.94
9122.00,0.94
9121.00,0.94
9120.00,0.94
9119.00,0.95
9118.00,0.95
9117.00,0.95
9116.00,0.95
9115.00,0.95
9114.00,0.95
9113.00,0.95
9112.00,0.95
9111.00,0.95
9110.00,0.95
9109.00,0.95
9108.00,0.95
9107.00,0.95
9106.00,0.95
9105.00,0.95
9104.00,0.95
9103.00,0.95
9102.00,0.95
9101.00,0.95
9100.00,0.95
9099.00,0.95
9098.00,0.95
9097.00,0.95
9096.00,0.95
9095.00,0.95
9094.00,0.95
9093.00,0.95
9092.00,0.95
9091.00,0.95
9090.00,0.95
9089.00,0.95
9088.00,0.95
9087.00,0.95
9086.00,0.95
9085.00,0.95
9084.00,0.95
9083.00,0.95
9082.00,0.95
9081.00,0.95
9080.00,0.94
9079.00,0.94
9078.00,0.94
9077.00,0.94
9076.00,0.94
9075.00,0.94
9074.00,0.94
9073.00,0.94
9072.00,0.94
9071.00,0.94
9070.00,0.94
9069.00,0.94
9068.00,0.94
9067.00,0.94
9066.00,0.94
9065.00,0.94
9064.00,0.94
9063.00,0.94
9062.00,0.94
9061.00,0.94
9060.00,0.94
9059.00,0.94
9058.00,0.94
9057.00,0.94
9056.00,0.94
9055.00,0.94
9054.00,0.94
9053.00,0.94
9052.00,0.94
9051.00,0.94
9050.00,0.94
9049.00,0.94
9048.00,0.94
9047.00,0.94
9046.00,0.94
9045.00,0.94
9044.00,0.94
9043.00,0.94
9042.00,0.94
9041.00,0.94
9040.00,0.94
9039.00,0.94
9038.00,0.94
9037.00,0.94
9036.00,0.94
9035.00,0.94
9034.00,0.94
9033.00,0.94
9032.00,0.94
9031.00,0.94
9030.00,0.95
9029.00,0.95
9028.00,0.95
9027.00,0.95
9026.00,0.95
9025.00,0.95
9024.00,0.95
9023.00,0.95
9022.00,0.95
9021.00,0.95
9020.00,0.95
9019.00,0.95
9018.00,0.95
9017.00,0.95
9016.00,0.95
9015.00,0.95
9014.00,0.95
9013.00,0.95
9012.00,0.95
9011.00,0.95
9010.00,0.95
9009.00,0.95
9008.00,0.95
9007.00,0.95
9006.00,0.95
9005.00,0.95
9004.00,0.95
9003.00,0.95
9002.00,0.95
9001.00,0.95
9000.00,0.95
8999.00,0.95
8998.00,0.95
8997.00,0.95
8996.00,0.95
8995.00,0.95
8994.00,0.95
8993.00,0.95
8992.00,0.95
8991.00,0.95
8990.00,0.95
8989.00,0.95
8988.00,0.95
8987.00,0.94
8986.00,0.94
8985.00,0.94
8984.00,0.94
8983.00,0.94
8982.00,0.94
8981.00,0.94
8980.00,0.94
8979.00,0.94
8978.00,0.94
8977.00,0.94
8976.00,0.94
8975.00,0.94
8974.00,0.94
8973.00,0.94
8972.00,0.94
8971.00,0.94
8970.00,0.94
8969.00,0.95
8968.00,0.95
8967.00,0.95
8966.00,0.95
8965.00,0.95
8964.00,0.95
8963.00,0.95
8962.00,0.95
8961.00,0.96
8960.00,0.96
8959.00,0.96
8958.00,0.96
8957.00,0.96
8956.00,0.96
8955.00,0.96
8954.00,0.96
8953.00,0.96
8952.00,0.96
8951.00,0.96
8950.00,0.96
8949.00,0.96
8948.00,0.96
8947.00,0.96
8946.00,0.96
8945.00,0.96
8944.00,0.96
8943.00,0.96
8942.00,0.95
8941.00,0.95
8940.00,0.95
8939.00,0.95
8938.00,0.95
8937.00,0.95
8936.00,0.95
8935.00,0.95
8934.00,0.95
8933.00,0.95
8932.00,0.94
8931.00,0.94
8930.00,0.94
8929.00,0.94
8928.00,0.94
8927.00,0.94
8926.00,0.95
8925.00,0.95
8924.00,0.95
8923.00,0.95
8922.00,0.95
8921.00,0.95
8920.00,0.95
8919.00,0.95
8918.00,0.95
8917.00,0.95
8916.00,0.95
8915.00,0.95
8914.00,0.95
8913.00,0.96
8912.00,0.96
8911.00,0.96
8910.00,0.96
8909.00,0.96
8908.00,0.96
8907.00,0.96
8906.00,0.96
8905.00,0.96
8904.00,0.96
8903.00,0.96
8902.00,0.96
8901.00,0.96
8900.00,0.96
8899.00,0.96
8898.00,0.96
8897.00,0.96
8896.00,0.96
8895.00,0.96
8894.00,0.96
8893.00,0.95
8892.00,0.95
8891.00,0.95
8890.00,0.95
8889.00,0.95
8888.00,0.95
8887.00,0.94
8886.00,0.94
8885.00,0.94
8884.00,0.94
8883.00,0.94
8882.00,0.94
8881.00,0.94
8880.00,0.94
8879.00,0.94
8878.00,0.94
8877.00,0.94
8876.00,0.94
8875.00,0.94
8874.00,0.94
8873.00,0.94
8872.00,0.94
8871.00,0.94
8870.00,0.94
8869.00,0.94
8868.00,0.94
8867.00,0.94
8866.00,0.94
8865.00,0.94
8864.00,0.94
8863.00,0.94
8862.00,0.94
8861.00,0.94
8860.00,0.94
8859.00,0.93
8858.00,0.93
8857.00,0.93
8856.00,0.93
8855.00,0.93
8854.00,0.93
8853.00,0.93
8852.00,0.93
8851.00,0.93
8850.00,0.92
8849.00,0.92
8848.00,0.92
8847.00,0.92
8846.00,0.92
8845.00,0.92
8844.00,0.92
8843.00,0.92
8842.00,0.93
8841.00,0.93
8840.00,0.93
8839.00,0.93
8838.00,0.93
8837.00,0.93
8836.00,0.93
8835.00,0.93
8834.00,0.93
8833.00,0.93
8832.00,0.93
8831.00,0.93
8830.00,0.93
8829.00,0.93
8828.00,0.93
8827.00,0.93
8826.00,0.93
8825.00,0.93
8824.00,0.93
8823.00,0.93
8822.00,0.93
8821.00,0.92
8820.00,0.92
8819.00,0.92
8818.00,0.92
8817.00,0.92
8816.00,0.92
8815.00,0.92
8814.00,0.91
8813.00,0.91
8812.00,0.91
8811.00,0.91
8810.00,0.91
8809.00,0.91
8808.00,0.91
8807.00,0.91
8806.00,0.91
8805.00,0.91
8804.00,0.91
8803.00,0.91
8802.00,0.91
8801.00,0.91
8800.00,0.91
8799.00,0.91
8798.00,0.91
8797.00,0.91
8796.00,0.91
8795.00,0.91
8794.00,0.91
8793.00,0.91
8792.00,0.91
8791.00,0.91
8790.00,0.91
8789.00,0.91
8788.00,0.91
8787.00,0.91
8786.00,0.91
8785.00,0.91
8784.00,0.91
8783.00,0.91
8782.00,0.91
8781.00,0.91
8780.00,0.91
8779.00,0.91
8778.00,0.91
8777.00,0.91
8776.00,0.91
8775.00,0.91
8774.00,0.91
8773.00,0.90
8772.00,0.90
8771.00,0.90
8770.00,0.90
8769.00,0.90
8768.00,0.90
8767.00,0.90
8766.00,0.90
8765.00,0.90
8764.00,0.90
8763.00,0.90
8762.00,0.90
8761.00,0.90
8760.00,0.90
8759.00,0.90
8758.00,0.90
8757.00,0.90
8756.00,0.90
8755.00,0.90
8754.00,0.90
8753.00,0.90
8752.00,0.90
8751.00,0.90
8750.00,0.90
8749.00,0.90
8748.00,0.90
8747.00,0.90
8746.00,0.90
8745.00,0.90
8744.00,0.90
8743.00,0.90
8742.00,0.90
8741.00,0.90
8740.00,0.90
8739.00,0.90
8738.00,0.90
8737.00,0.90
8736.00,0.90
8735.00,0.90
8734.00,0.90
8733.00,0.90
8732.00,0.90
8731.00,0.90
8730.00,0.90
8729.00,0.90
8728.00,0.90
8727.00,0.90
8726.00,0.90
8725.00,0.89
8724.00,0.89
8723.00,0.89
8722.00,0.89
8721.00,0.89
8720.00,0.89
8719.00,0.89
8718.00,0.89
8717.00,0.89
8716.00,0.88
8715.00,0.88
8714.00,0.88
8713.00,0.88
8712.00,0.88
8711.00,0.88
8710.00,0.88
8709.00,0.88
8708.00,0.88
8707.00,0.88
8706.00,0.88
8705.00,0.88
8704.00,0.88
8703.00,0.88
8702.00,0.89
8701.00,0.89
8700.00,0.89
8699.00,0.89
8698.00,0.89
8697.00,0.89
8696.00,0.89
8695.00,0.89
8694.00,0.89
8693.00,0.89
8692.00,0.89
8691.00,0.89
8690.00,0.89
8689.00,0.89
8688.00,0.88
8687.00,0.88
8686.00,0.88
8685.00,0.88
8684.00,0.88
8683.00,0.88
8682.00,0.88
8681.00,0.88
8680.00,0.88
8679.00,0.88
8678.00,0.88
8677.00,0.88
8676.00,0.88
8675.00,0.88
8674.00,0.88
8673.00,0.88
8672.00,0.88
8671.00,0.88
8670.00,0.88
8669.00,0.88
8668.00,0.88
8667.00,0.88
8666.00,0.88
8665.00,0.88
8664.00,0.88
8663.00,0.88
8662.00,0.88
8661.00,0.88
8660.00,0.88
8659.00,0.88
8658.00,0.88
8657.00,0.88
8656.00,0.88
8655.00,0.88
8654.00,0.88
8653.00,0.88
8652.00,0.88
8651.00,0.88
8650.00,0.88
8649.00,0.88
8648.00,0.88
8647.00,0.87
8646.00,0.87
8645.00,0.87
8644.00,0.87
8643.00,0.87
8642.00,0.87
8641.00,0.86
8640.00,0.86
8639.00,0.86
8638.00,0.86
8637.00,0.86
8636.00,0.86
8635.00,0.86
8634.00,0.85
8633.00,0.85
8632.00,0.85
8631.00,0.85
8630.00,0.85
8629.00,0.85
8628.00,0.85
8627.00,0.85
8626.00,0.85
8625.00,0.85
8624.00,0.85
8623.00,0.85
8622.00,0.85
8621.00,0.85
8620.00,0.85
8619.00,0.85
8618.00,0.85
8617.00,0.85
8616.00,0.85
8615.00,0.85
8614.00,0.85
8613.00,0.85
8612.00,0.85
8611.00,0.85
8610.00,0.85
8609.00,0.85
8608.00,0.85
8607.00,0.85
8606.00,0.85
8605.00,0.85
8604.00,0.85
8603.00,0.85
8602.00,0.85
8601.00,0.85
8600.00,0.85
8599.00,0.85
8598.00,0.85
8597.00,0.85
8596.00,0.85
8595.00,0.84
8594.00,0.84
8593.00,0.84
8592.00,0.84
8591.00,0.84
8590.00,0.84
8589.00,0.84
8588.00,0.84
8587.00,0.84
8586.00,0.84
8585.00,0.84
8584.00,0.84
8583.00,0.84
8582.00,0.85
8581.00,0.85
8580.00,0.85
8579.00,0.85
8578.00,0.85
8577.00,0.85
8576.00,0.85
8575.00,0.85
8574.00,0.85
8573.00,0.85
8572.00,0.85
8571.00,0.85
8570.00,0.85
8569.00,0.85
8568.00,0.85
8567.00,0.85
8566.00,0.85
8565.00,0.85
8564.00,0.85
8563.00,0.85
8562.00,0.85
8561.00,0.85
8560.00,0.85
8559.00,0.85
8558.00,0.85
8557.00,0.84
8556.00,0.84
8555.00,0.84
8554.00,0.84
8553.00,0.84
8552.00,0.84
8551.00,0.84
8550.00,0.84
8549.00,0.84
8548.00,0.84
8547.00,0.84
8546.00,0.84
8545.00,0.83
8544.00,0.83
8543.00,0.83
8542.00,0.83
8541.00,0.83
8540.00,0.83
8539.00,0.83
8538.00,0.83
8537.00,0.83
8536.00,0.83
8535.00,0.83
8534.00,0.83
8533.00,0.83
8532.00,0.83
8531.00,0.83
8530.00,0.83
8529.00,0.83
8528.00,0.83
8527.00,0.83
8526.00,0.83
8525.00,0.83
8524.00,0.83
8523.00,0.83
8522.00,0.83
8521.00,0.83
8520.00,0.83
8519.00,0.83
8518.00,0.83
8517.00,0.83
8516.00,0.83
8515.00,0.82
8514.00,0.82
8513.00,0.82
8512.00,0.82
8511.00,0.82
8510.00,0.82
8509.00,0.82
8508.00,0.82
8507.00,0.82
8506.00,0.82
8505.00,0.82
8504.00,0.82
8503.00,0.82
8502.00,0.81
8501.00,0.81
8500.00,0.81
8499.00,0.81
8498.00,0.81
8497.00,0.81
8496.00,0.81
8495.00,0.81
8494.00,0.80
8493.00,0.80
8492.00,0.80
8491.00,0.80
8490.00,0.80
8489.00,0.79
8488.00,0.79
8487.00,0.79
8486.00,0.79
8485.00,0.79
8484.00,0.78
8483.00,0.78
8482.00,0.78
8481.00,0.78
8480.00,0.78
8479.00,0.78
8478.00,0.78
8477.00,0.78
8476.00,0.78
8475.00,0.78
8474.00,0.78
8473.00,0.78
8472.00,0.78
8471.00,0.78
8470.00,0.78
8469.00,0.78
8468.00,0.78
8467.00,0.78
8466.00,0.78
8465.00,0.78
8464.00,0.78
8463.00,0.78
8462.00,0.78
8461.00,0.78
8460.00,0.78
8459.00,0.78
8458.00,0.78
8457.00,0.78
8456.00,0.78
8455.00,0.78
8454.00,0.78
8453.00,0.78
8452.00,0.78
8451.00,0.78
8450.00,0.78
8449.00,0.78
8448.00,0.78
8447.00,0.77
8446.00,0.77
8445.00,0.77
8444.00,0.77
8443.00,0.77
8442.00,0.77
8441.00,0.77
8440.00,0.77
8439.00,0.77
8438.00,0.77
8437.00,0.77
8436.00,0.77
8435.00,0.77
8434.00,0.77
8433.00,0.77
8432.00,0.77
8431.00,0.77
8430.00,0.77
8429.00,0.77
8428.00,0.77
8427.00,0.77
8426.00,0.77
8425.00,0.77
8424.00,0.77
8423.00,0.77
8422.00,0.77
8421.00,0.77
8420.00,0.78
8419.00,0.78
8418.00,0.78
8417.00,0.78
8416.00,0.78
8415.00,0.78
8414.00,0.78
8413.00,0.78
8412.00,0.79
8411.00,0.79
8410.00,0.79
8409.00,0.79
8408.00,0.79
8407.00,0.79
8406.00,0.79
8405.00,0.79
8404.00,0.79
8403.00,0.79
8402.00,0.79
8401.00,0.79
8400.00,0.79
8399.00,0.80
8398.00,0.80
8397.00,0.80
8396.00,0.80
8395.00,0.80
8394.00,0.80
8393.00,0.80
8392.00,0.80
8391.00,0.81
8390.00,0.81
8389.00,0.81
8388.00,0.81
8387.00,0.81
8386.00,0.81
8385.00,0.81
8384.00,0.81
8383.00,0.81
8382.00,0.81
8381.00,0.82
8380.00,0.82
8379.00,0.82
8378.00,0.82
8377.00,0.82
8376.00,0.82
8375.00,0.82
8374.00,0.82
8373.00,0.82
8372.00,0.82
8371.00,0.82
8370.00,0.82
8369.00,0.82
8368.00,0.82
8367.00,0.82
8366.00,0.82
8365.00,0.83
8364.00,0.83
8363.00,0.83
8362.00,0.83
8361.00,0.83
8360.00,0.83
8359.00,0.83
8358.00,0.83
8357.00,0.83
8356.00,0.83
8355.00,0.83
8354.00,0.83
8353.00,0.83
8352.00,0.83
8351.00,0.82
8350.00,0.82
8349.00,0.82
8348.00,0.82
8347.00,0.82
8346.00,0.82
8345.00,0.82
8344.00,0.82
8343.00,0.82
8342.00,0.82
8341.00,0.82
8340.00,0.82
8339.00,0.82
8338.00,0.82
8337.00,0.82
8336.00,0.82
8335.00,0.82
8334.00,0.82
8333.00,0.82
8332.00,0.82
8331.00,0.82
8330.00,0.82
8329.00,0.82
8328.00,0.82
8327.00,0.82
8326.00,0.82
8325.00,0.82
8324.00,0.82
8323.00,0.82
8322.00,0.82
8321.00,0.82
8320.00,0.82
8319.00,0.82
8318.00,0.82
8317.00,0.82
8316.00,0.82
8315.00,0.82
8314.00,0.82
8313.00,0.82
8312.00,0.82
8311.00,0.82
8310.00,0.82
8309.00,0.82
8308.00,0.82
8307.00,0.82
8306.00,0.82
8305.00,0.82
8304.00,0.82
8303.00,0.82
8302.00,0.82
8301.00,0.82
8300.00,0.82
8299.00,0.82
8298.00,0.82
8297.00,0.82
8296.00,0.82
8295.00,0.82
8294.00,0.82
8293.00,0.82
8292.00,0.82
8291.00,0.82
8290.00,0.82
8289.00,0.82
8288.00,0.82
8287.00,0.82
8286.00,0.82
8285.00,0.82
8284.00,0.82
8283.00,0.82
8282.00,0.82
8281.00,0.82
8280.00,0.82
8279.00,0.82
8278.00,0.83
8277.00,0.83
8276.00,0.83
8275.00,0.83
8274.00,0.83
8273.00,0.83
8272.00,0.83
8271.00,0.83
8270.00,0.83
8269.00,0.83
8268.00,0.83
8267.00,0.83
8266.00,0.83
8265.00,0.83
8264.00,0.83
8263.00,0.83
8262.00,0.83
8261.00,0.83
8260.00,0.83
8259.00,0.83
8258.00,0.83
8257.00,0.83
8256.00,0.83
8255.00,0.83
8254.00,0.83
8253.00,0.83
8252.00,0.83
8251.00,0.83
8250.00,0.83
8249.00,0.83
8248.00,0.83
8247.00,0.83
8246.00,0.83
8245.00,0.83
8244.00,0.83
8243.00,0.83
8242.00,0.83
8241.00,0.83
8240.00,0.84
8239.00,0.84
8238.00,0.84
8237.00,0.84
8236.00,0.84
8235.00,0.84
8234.00,0.84
8233.00,0.84
8232.00,0.84
8231.00,0.85
8230.00,0.85
8229.00,0.85
8228.00,0.85
8227.00,0.85
8226.00,0.85
8225.00,0.85
8224.00,0.85
8223.00,0.86
8222.00,0.86
8221.00,0.86
8220.00,0.86
8219.00,0.86
8218.00,0.86
8217.00,0.86
8216.00,0.86
8215.00,0.86
8214.00,0.86
8213.00,0.86
8212.00,0.86
8211.00,0.86
8210.00,0.86
8209.00,0.86
8208.00,0.86
8207.00,0.86
8206.00,0.86
8205.00,0.86
8204.00,0.86
8203.00,0.86
8202.00,0.86
8201.00,0.86
8200.00,0.86
8199.00,0.86
8198.00,0.86
8197.00,0.86
8196.00,0.86
8195.00,0.86
8194.00,0.86
8193.00,0.86
8192.00,0.86
8191.00,0.86
8190.00,0.86
8189.00,0.86
8188.00,0.86
8187.00,0.86
8186.00,0.86
8185.00,0.86
8184.00,0.86
8183.00,0.86
8182.00,0.86
8181.00,0.86
8180.00,0.86
8179.00,0.86
8178.00,0.86
8177.00,0.87
8176.00,0.87
8175.00,0.87
8174.00,0.87
8173.00,0.87
8172.00,0.87
8171.00,0.87
8170.00,0.87
8169.00,0.87
8168.00,0.87
8167.00,0.87
8166.00,0.87
8165.00,0.87
8164.00,0.87
8163.00,0.87
8162.00,0.87
8161.00,0.87
8160.00,0.87
8159.00,0.87
8158.00,0.87
8157.00,0.87
8156.00,0.87
8155.00,0.87
8154.00,0.87
8153.00,0.87
8152.00,0.87
8151.00,0.87
8150.00,0.87
8149.00,0.87
8148.00,0.87
8147.00,0.87
8146.00,0.87
8145.00,0.87
8144.00,0.88
8143.00,0.88
8142.00,0.88
8141.00,0.88
8140.00,0.88
8139.00,0.89
8138.00,0.89
8137.00,0.89
8136.00,0.89
8135.00,0.89
8134.00,0.89
8133.00,0.89
8132.00,0.89
8131.00,0.89
8130.00,0.89
8129.00,0.89
8128.00,0.89
8127.00,0.89
8126.00,0.89
8125.00,0.89
8124.00,0.89
8123.00,0.89
8122.00,0.89
8121.00,0.89
8120.00,0.89
8119.00,0.89
8118.00,0.89
8117.00,0.89
8116.00,0.89
8115.00,0.89
8114.00,0.89
8113.00,0.89
8112.00,0.89
8111.00,0.89
8110.00,0.89
8109.00,0.89
8108.00,0.89
8107.00,0.89
8106.00,0.89
8105.00,0.89
8104.00,0.90
8103.00,0.90
8102.00,0.90
8101.00,0.90
8100.00,0.90
8099.00,0.90
8098.00,0.90
8097.00,0.90
8096.00,0.91
8095.00,0.91
8094.00,0.91
8093.00,0.91
8092.00,0.91
8091.00,0.91
8090.00,0.91
8089.00,0.91
8088.00,0.91
8087.00,0.91
8086.00,0.91
8085.00,0.91
8084.00,0.91
8083.00,0.91
8082.00,0.91
8081.00,0.91
8080.00,0.91
8079.00,0.91
8078.00,0.91
8077.00,0.91
8076.00,0.91
8075.00,0.91
8074.00,0.91
8073.00,0.91
8072.00,0.91
8071.00,0.91
8070.00,0.91
8069.00,0.91
8068.00,0.91
8067.00,0.91
8066.00,0.91
8065.00,0.91
8064.00,0.91
8063.00,0.91
8062.00,0.91
8061.00,0.91
8060.00,0.91
8059.00,0.91
8058.00,0.91
8057.00,0.91
8056.00,0.91
8055.00,0.90
8054.00,0.90
8053.00,0.90
8052.00,0.90
8051.00,0.90
8050.00,0.90
8049.00,0.90
8048.00,0.90
8047.00,0.90
8046.00,0.90
8045.00,0.90
8044.00,0.90
8043.00,0.90
8042.00,0.91
8041.00,0.91
8040.00,0.91
8039.00,0.91
8038.00,0.91
8037.00,0.91
8036.00,0.91
8035.00,0.91
8034.00,0.91
8033.00,0.91
8032.00,0.91
8031.00,0.91
8030.00,0.91
8029.00,0.92
8028.00,0.92
8027.00,0.92
8026.00,0.92
8025.00,0.92
8024.00,0.92
8023.00,0.92
8022.00,0.92
8021.00,0.92
8020.00,0.92
8019.00,0.92
8018.00,0.92
8017.00,0.92
8016.00,0.92
8015.00,0.92
8014.00,0.92
8013.00,0.92
8012.00,0.92
8011.00,0.92
8010.00,0.92
8009.00,0.92
8008.00,0.92
8007.00,0.92
8006.00,0.92
8005.00,0.92
8004.00,0.92
8003.00,0.92
8002.00,0.92
8001.00,0.92
8000.00,0.92
7999.00,0.92
7998.00,0.92
7997.00,0.92
7996.00,0.92
7995.00,0.92
7994.00,0.92
7993.00,0.92
7992.00,0.92
7991.00,0.92
7990.00,0.92
7989.00,0.92
7988.00,0.93
7987.00,0.93
7986.00,0.93
7985.00,0.93
7984.00,0.93
7983.00,0.93
7982.00,0.93
7981.00,0.93
7980.00,0.93
7979.00,0.93
7978.00,0.93
7977.00,0.93
7976.00,0.93
7975.00,0.93
7974.00,0.93
7973.00,0.93
7972.00,0.93
7971.00,0.93
7970.00,0.93
7969.00,0.93
7968.00,0.92
7967.00,0.92
7966.00,0.92
7965.00,0.92
7964.00,0.92
7963.00,0.92
7962.00,0.92
7961.00,0.92
7960.00,0.92
7959.00,0.92
7958.00,0.92
7957.00,0.93
7956.00,0.93
7955.00,0.93
7954.00,0.93
7953.00,0.93
7952.00,0.93
7951.00,0.93
7950.00,0.93
7949.00,0.93
7948.00,0.93
7947.00,0.93
7946.00,0.93
7945.00,0.94
7944.00,0.94
7943.00,0.94
7942.00,0.94
7941.00,0.94
7940.00,0.94
7939.00,0.94
7938.00,0.94
7937.00,0.94
7936.00,0.94
7935.00,0.94
7934.00,0.94
7933.00,0.94
7932.00,0.94
7931.00,0.94
7930.00,0.94
7929.00,0.94
7928.00,0.94
7927.00,0.94
7926.00,0.94
7925.00,0.94
7924.00,0.94
7923.00,0.94
7922.00,0.94
7921.00,0.94
7920.00,0.94
7919.00,0.94
7918.00,0.94
7917.00,0.94
7916.00,0.94
7915.00,0.94
7914.00,0.94
7913.00,0.94
7912.00,0.94
7911.00,0.94
7910.00,0.94
7909.00,0.94
7908.00,0.94
7907.00,0.94
7906.00,0.94
7905.00,0.94
7904.00,0.94
7903.00,0.94
7902.00,0.94
7901.00,0.94
7900.00,0.94
7899.00,0.94
7898.00,0.94
7897.00,0.94
7896.00,0.94
7895.00,0.94
7894.00,0.94
7893.00,0.94
7892.00,0.94
7891.00,0.94
7890.00,0.94
7889.00,0.94
7888.00,0.93
7887.00,0.93
7886.00,0.93
7885.00,0.93
7884.00,0.93
7883.00,0.93
7882.00,0.93
7881.00,0.93
7880.00,0.93
7879.00,0.93
7878.00,0.94
7877.00,0.94
7876.00,0.94
7875.00,0.94
7874.00,0.94
7873.00,0.94
7872.00,0.94
7871.00,0.94
7870.00,0.94
7869.00,0.94
7868.00,0.94
7867.00,0.94
7866.00,0.94
7865.00,0.94
7864.00,0.94
7863.00,0.94
7862.00,0.94
7861.00,0.94
7860.00,0.94
7859.00,0.94
7858.00,0.94
7857.00,0.95
7856.00,0.95
7855.00,0.95
7854.00,0.95
7853.00,0.95
7852.00,0.95
7851.00,0.95
7850.00,0.95
7849.00,0.95
7848.00,0.95
7847.00,0.95
7846.00,0.95
7845.00,0.95
7844.00,0.95
7843.00,0.95
7842.00,0.95
7841.00,0.95
7840.00,0.95
7839.00,0.95
7838.00,0.95
7837.00,0.95
7836.00,0.95
7835.00,0.95
7834.00,0.95
7833.00,0.95
7832.00,0.95
7831.00,0.95
7830.00,0.95
7829.00,0.95
7828.00,0.95
7827.00,0.95
7826.00,0.95
7825.00,0.95
7824.00,0.95
7823.00,0.95
7822.00,0.95
7821.00,0.95
7820.00,0.95
7819.00,0.95
7818.00,0.95
7817.00,0.95
7816.00,0.95
7815.00,0.95
7814.00,0.95
7813.00,0.95
7812.00,0.96
7811.00,0.96
7810.00,0.96
7809.00,0.96
7808.00,0.96
7807.00,0.96
7806.00,0.96
7805.00,0.96
7804.00,0.96
7803.00,0.96
7802.00,0.96
7801.00,0.96
7800.00,0.96
7799.00,0.96
7798.00,0.96
7797.00,0.96
7796.00,0.96
7795.00,0.96
7794.00,0.96
7793.00,0.96
7792.00,0.96
7791.00,0.96
7790.00,0.96
7789.00,0.96
7788.00,0.96
7787.00,0.96
7786.00,0.95
7785.00,0.95
7784.00,0.95
7783.00,0.95
7782.00,0.95
7781.00,0.95
7780.00,0.95
7779.00,0.95
7778.00,0.95
7777.00,0.95
7776.00,0.95
7775.00,0.95
7774.00,0.96
7773.00,0.96
7772.00,0.96
7771.00,0.96
7770.00,0.96
7769.00,0.96
7768.00,0.96
7767.00,0.96
7766.00,0.96
7765.00,0.96
7764.00,0.96
7763.00,0.96
7762.00,0.96
7761.00,0.96
7760.00,0.96
7759.00,0.96
7758.00,0.96
7757.00,0.96
7756.00,0.96
7755.00,0.96
7754.00,0.96
7753.00,0.96
7752.00,0.96
7751.00,0.96
7750.00,0.96
7749.00,0.96
7748.00,0.96
7747.00,0.96
7746.00,0.96
7745.00,0.96
7744.00,0.96
7743.00,0.96
7742.00,0.96
7741.00,0.96
7740.00,0.96
7739.00,0.96
7738.00,0.96
7737.00,0.95
7736.00,0.95
7735.00,0.95
7734.00,0.95
7733.00,0.95
7732.00,0.95
7731.00,0.95
7730.00,0.95
7729.00,0.95
7728.00,0.95
7727.00,0.95
7726.00,0.95
7725.00,0.95
7724.00,0.95
7723.00,0.95
7722.00,0.95
7721.00,0.95
7720.00,0.95
7719.00,0.95
7718.00,0.95
7717.00,0.95
7716.00,0.95
7715.00,0.95
7714.00,0.95
7713.00,0.95
7712.00,0.95
7711.00,0.95
7710.00,0.95
7709.00,0.95
7708.00,0.95
7707.00,0.95
7706.00,0.95
7705.00,0.95
7704.00,0.95
7703.00,0.95
7702.00,0.96
7701.00,0.96
7700.00,0.96
7699.00,0.96
7698.00,0.96
7697.00,0.96
7696.00,0.96
7695.00,0.96
7694.00,0.96
7693.00,0.96
7692.00,0.96
7691.00,0.96
7690.00,0.96
7689.00,0.96
7688.00,0.96
7687.00,0.96
7686.00,0.96
7685.00,0.96
7684.00,0.96
7683.00,0.96
7682.00,0.96
7681.00,0.96
7680.00,0.96
7679.00,0.96
7678.00,0.96
7677.00,0.96
7676.00,0.96
7675.00,0.96
7674.00,0.96
7673.00,0.96
7672.00,0.96
7671.00,0.96
7670.00,0.96
7669.00,0.96
7668.00,0.96
7667.00,0.96
7666.00,0.96
7665.00,0.96
7664.00,0.96
7663.00,0.96
7662.00,0.96
7661.00,0.96
7660.00,0.96
7659.00,0.96
7658.00,0.96
7657.00,0.96
7656.00,0.96
7655.00,0.96
7654.00,0.96
7653.00,0.96
7652.00,0.96
7651.00,0.96
7650.00,0.96
7649.00,0.96
7648.00,0.96
7647.00,0.96
7646.00,0.96
7645.00,0.96
7644.00,0.96
7643.00,0.96
7642.00,0.96
7641.00,0.96
7640.00,0.96
7639.00,0.96
7638.00,0.96
7637.00,0.96
7636.00,0.96
7635.00,0.96
7634.00,0.96
7633.00,0.96
7632.00,0.96
7631.00,0.96
7630.00,0.96
7629.00,0.95
7628.00,0.95
7627.00,0.95
7626.00,0.95
7625.00,0.95
7624.00,0.95
7623.00,0.95
7622.00,0.95
7621.00,0.95
7620.00,0.95
7619.00,0.95
7618.00,0.95
7617.00,0.95
7616.00,0.95
7615.00,0.95
7614.00,0.95
7613.00,0.95
7612.00,0.95
7611.00,0.95
7610.00,0.95
7609.00,0.95
7608.00,0.95
7607.00,0.95
7606.00,0.96
7605.00,0.96
7604.00,0.96
7603.00,0.96
7602.00,0.96
7601.00,0.96
7600.00,0.96
7599.00,0.95
7598.00,0.95
7597.00,0.95
7596.00,0.95
7595.00,0.95
7594.00,0.95
7593.00,0.95
7592.00,0.95
7591.00,0.95
7590.00,0.95
7589.00,0.95
7588.00,0.95
7587.00,0.95
7586.00,0.95
7585.00,0.95
7584.00,0.95
7583.00,0.95
7582.00,0.95
7581.00,0.95
7580.00,0.95
7579.00,0.95
7578.00,0.95
7577.00,0.95
7576.00,0.95
7575.00,0.95
7574.00,0.95
7573.00,0.95
7572.00,0.95
7571.00,0.96
7570.00,0.96
7569.00,0.96
7568.00,0.96
7567.00,0.96
7566.00,0.96
7565.00,0.96
7564.00,0.96
7563.00,0.96
7562.00,0.96
7561.00,0.95
7560.00,0.95
7559.00,0.95
7558.00,0.95
7557.00,0.95
7556.00,0.95
7555.00,0.95
7554.00,0.95
7553.00,0.95
7552.00,0.95
7551.00,0.95
7550.00,0.95
7549.00,0.95
7548.00,0.95
7547.00,0.95
7546.00,0.95
7545.00,0.95
7544.00,0.95
7543.00,0.95
7542.00,0.95
7541.00,0.95
7540.00,0.95
7539.00,0.95
7538.00,0.95
7537.00,0.95
7536.00,0.95
7535.00,0.95
7534.00,0.95
7533.00,0.95
7532.00,0.95
7531.00,0.95
7530.00,0.94
7529.00,0.94
7528.00,0.94
7527.00,0.94
7526.00,0.94
7525.00,0.94
7524.00,0.94
7523.00,0.94
7522.00,0.94
7521.00,0.94
7520.00,0.94
7519.00,0.94
7518.00,0.94
7517.00,0.94
7516.00,0.94
7515.00,0.94
7514.00,0.94
7513.00,0.93
7512.00,0.93
7511.00,0.93
7510.00,0.93
7509.00,0.93
7508.00,0.93
7507.00,0.93
7506.00,0.93
7505.00,0.93
7504.00,0.93
7503.00,0.93
7502.00,0.93
7501.00,0.93
7500.00,0.93
7499.00,0.93
7498.00,0.93
7497.00,0.93
7496.00,0.93
7495.00,0.93
7494.00,0.93
7493.00,0.93
7492.00,0.93
7491.00,0.93
7490.00,0.92
7489.00,0.92
7488.00,0.92
7487.00,0.92
7486.00,0.92
7485.00,0.92
7484.00,0.92
7483.00,0.92
7482.00,0.92
7481.00,0.92
7480.00,0.92
7479.00,0.92
7478.00,0.92
7477.00,0.91
7476.00,0.91
7475.00,0.91
7474.00,0.91
7473.00,0.91
7472.00,0.91
7471.00,0.91
7470.00,0.91
7469.00,0.91
7468.00,0.91
7467.00,0.91
7466.00,0.91
7465.00,0.91
7464.00,0.91
7463.00,0.91
7462.00,0.91
7461.00,0.90
7460.00,0.90
7459.00,0.90
7458.00,0.90
7457.00,0.90
7456.00,0.90
7455.00,0.90
7454.00,0.90
7453.00,0.90
7452.00,0.90
7451.00,0.90
7450.00,0.90
7449.00,0.90
7448.00,0.90
7447.00,0.90
7446.00,0.90
7445.00,0.90
7444.00,0.90
7443.00,0.90
7442.00,0.90
7441.00,0.90
7440.00,0.90
7439.00,0.90
7438.00,0.90
7437.00,0.89
7436.00,0.89
7435.00,0.89
7434.00,0.89
7433.00,0.89
7432.00,0.89
7431.00,0.89
7430.00,0.89
7429.00,0.89
7428.00,0.88
7427.00,0.88
7426.00,0.88
7425.00,0.88
7424.00,0.88
7423.00,0.88
7422.00,0.88
7421.00,0.88
7420.00,0.88
7419.00,0.88
7418.00,0.88
7417.00,0.88
7416.00,0.88
7415.00,0.88
7414.00,0.87
7413.00,0.87
7412.00,0.87
7411.00,0.87
7410.00,0.87
7409.00,0.87
7408.00,0.87
7407.00,0.87
7406.00,0.87
7405.00,0.87
7404.00,0.86
7403.00,0.86
7402.00,0.86
7401.00,0.86
7400.00,0.86
7399.00,0.86
7398.00,0.86
7397.00,0.86
7396.00,0.85
7395.00,0.85
7394.00,0.85
7393.00,0.85
7392.00,0.85
7391.00,0.85
7390.00,0.85
7389.00,0.85
7388.00,0.84
7387.00,0.84
7386.00,0.84
7385.00,0.84
7384.00,0.84
7383.00,0.84
7382.00,0.84
7381.00,0.84
7380.00,0.84
7379.00,0.84
7378.00,0.84
7377.00,0.84
7376.00,0.83
7375.00,0.83
7374.00,0.83
7373.00,0.83
7372.00,0.83
7371.00,0.83
7370.00,0.83
7369.00,0.83
7368.00,0.83
7367.00,0.83
7366.00,0.83
7365.00,0.83
7364.00,0.83
7363.00,0.84
7362.00,0.84
7361.00,0.84
7360.00,0.84
7359.00,0.84
7358.00,0.84
7357.00,0.84
7356.00,0.84
7355.00,0.84
7354.00,0.84
7353.00,0.84
7352.00,0.84
7351.00,0.84
7350.00,0.84
7349.00,0.84
7348.00,0.84
7347.00,0.84
7346.00,0.84
7345.00,0.84
7344.00,0.84
7343.00,0.84
7342.00,0.83
7341.00,0.83
7340.00,0.83
7339.00,0.83
7338.00,0.83
7337.00,0.83
7336.00,0.83
7335.00,0.83
7334.00,0.83
7333.00,0.83
7332.00,0.82
7331.00,0.82
7330.00,0.82
7329.00,0.82
7328.00,0.82
7327.00,0.82
7326.00,0.82
7325.00,0.82
7324.00,0.82
7323.00,0.82
7322.00,0.82
7321.00,0.82
7320.00,0.82
7319.00,0.82
7318.00,0.82
7317.00,0.82
7316.00,0.82
7315.00,0.82
7314.00,0.82
7313.00,0.81
7312.00,0.81
7311.00,0.81
7310.00,0.81
7309.00,0.81
7308.00,0.81
7307.00,0.81
7306.00,0.81
7305.00,0.81
7304.00,0.81
7303.00,0.80
7302.00,0.80
7301.00,0.80
7300.00,0.80
7299.00,0.80
7298.00,0.80
7297.00,0.80
7296.00,0.79
7295.00,0.79
7294.00,0.79
7293.00,0.79
7292.00,0.79
7291.00,0.79
7290.00,0.79
7289.00,0.79
7288.00,0.78
7287.00,0.78
7286.00,0.78
7285.00,0.78
7284.00,0.78
7283.00,0.78
7282.00,0.78
7281.00,0.78
7280.00,0.78
7279.00,0.78
7278.00,0.78
7277.00,0.78
7276.00,0.78
7275.00,0.77
7274.00,0.77
7273.00,0.77
7272.00,0.77
7271.00,0.77
7270.00,0.77
7269.00,0.76
7268.00,0.76
7267.00,0.76
7266.00,0.76
7265.00,0.76
7264.00,0.75
7263.00,0.75
7262.00,0.75
7261.00,0.75
7260.00,0.74
7259.00,0.74
7258.00,0.74
7257.00,0.74
7256.00,0.73
7255.00,0.73
7254.00,0.73
7253.00,0.73
7252.00,0.73
7251.00,0.72
7250.00,0.72
7249.00,0.72
7248.00,0.72
7247.00,0.71
7246.00,0.71
7245.00,0.71
7244.00,0.71
7243.00,0.70
7242.00,0.70
7241.00,0.70
7240.00,0.70
7239.00,0.69
7238.00,0.69
7237.00,0.69
7236.00,0.68
7235.00,0.68
7234.00,0.68
7233.00,0.67
7232.00,0.67
7231.00,0.67
7230.00,0.66
7229.00,0.66
7228.00,0.66
7227.00,0.65
7226.00,0.65
7225.00,0.65
7224.00,0.64
7223.00,0.64
7222.00,0.64
7221.00,0.63
7220.00,0.63
7219.00,0.63
7218.00,0.62
7217.00,0.62
7216.00,0.62
7215.00,0.61
7214.00,0.61
7213.00,0.61
7212.00,0.61
7211.00,0.60
7210.00,0.60
7209.00,0.60
7208.00,0.59
7207.00,0.59
7206.00,0.59
7205.00,0.58
7204.00,0.58
7203.00,0.58
7202.00,0.57
7201.00,0.57
7200.00,0.57
7199.00,0.56
7198.00,0.56
7197.00,0.56
7196.00,0.55
7195.00,0.55
7194.00,0.55
7193.00,0.54
7192.00,0.54
7191.00,0.53
7190.00,0.53
7189.00,0.53
7188.00,0.52
7187.00,0.52
7186.00,0.51
7185.00,0.51
7184.00,0.51
7183.00,0.50
7182.00,0.50
7181.00,0.50
7180.00,0.49
7179.00,0.49
7178.00,0.49
7177.00,0.48
7176.00,0.48
7175.00,0.48
7174.00,0.48
7173.00,0.47
7172.00,0.47
7171.00,0.47
7170.00,0.47
7169.00,0.47
7168.00,0.46
7167.00,0.46
7166.00,0.46
7165.00,0.46
7164.00,0.45
7163.00,0.45
7162.00,0.45
7161.00,0.45
7160.00,0.45
7159.00,0.44
7158.00,0.44
7157.00,0.44
7156.00,0.44
7155.00,0.44
7154.00,0.43
7153.00,0.43
7152.00,0.43
7151.00,0.43
7150.00,0.42
7149.00,0.42
7148.00,0.42
7147.00,0.42
7146.00,0.41
7145.00,0.41
7144.00,0.41
7143.00,0.41
7142.00,0.40
7141.00,0.40
7140.00,0.40
7139.00,0.40
7138.00,0.40
7137.00,0.39
7136.00,0.39
7135.00,0.39
7134.00,0.39
7133.00,0.39
7132.00,0.38
7131.00,0.38
7130.00,0.38
7129.00,0.38
7128.00,0.38
7127.00,0.38
7126.00,0.38
7125.00,0.37
7124.00,0.37
7123.00,0.37
7122.00,0.37
7121.00,0.37
7120.00,0.37
7119.00,0.37
7118.00,0.36
7117.00,0.36
7116.00,0.36
7115.00,0.36
7114.00,0.36
7113.00,0.35
7112.00,0.35
7111.00,0.35
7110.00,0.35
7109.00,0.35
7108.00,0.34
7107.00,0.34
7106.00,0.34
7105.00,0.34
7104.00,0.34
7103.00,0.34
7102.00,0.34
7101.00,0.33
7100.00,0.33
7099.00,0.33
7098.00,0.33
7097.00,0.33
7096.00,0.33
7095.00,0.33
7094.00,0.33
7093.00,0.32
7092.00,0.32
7091.00,0.32
7090.00,0.32
7089.00,0.32
7088.00,0.32
7087.00,0.32
7086.00,0.32
7085.00,0.32
7084.00,0.32
7083.00,0.31
7082.00,0.31
7081.00,0.31
7080.00,0.31
7079.00,0.31
7078.00,0.31
7077.00,0.31
7076.00,0.31
7075.00,0.31
7074.00,0.31
7073.00,0.30
7072.00,0.30
7071.00,0.30
7070.00,0.30
7069.00,0.30
7068.00,0.30
7067.00,0.30
7066.00,0.29
7065.00,0.29
7064.00,0.29
7063.00,0.29
7062.00,0.29
7061.00,0.29
7060.00,0.29
7059.00,0.29
7058.00,0.28
7057.00,0.28
7056.00,0.28
7055.00,0.28
7054.00,0.28
7053.00,0.28
7052.00,0.28
7051.00,0.28
7050.00,0.28
7049.00,0.28
7048.00,0.28
7047.00,0.28
7046.00,0.28
7045.00,0.28
7044.00,0.28
7043.00,0.28
7042.00,0.28
7041.00,0.28
7040.00,0.28
7039.00,0.28
7038.00,0.28
7037.00,0.28
7036.00,0.28
7035.00,0.27
7034.00,0.27
7033.00,0.27
7032.00,0.27
7031.00,0.27
7030.00,0.27
7029.00,0.27
7028.00,0.27
7027.00,0.27
7026.00,0.27
7025.00,0.27
7024.00,0.27
7023.00,0.27
7022.00,0.27
7021.00,0.27
7020.00,0.26
7019.00,0.26
7018.00,0.26
7017.00,0.26
7016.00,0.26
7015.00,0.26
7014.00,0.26
7013.00,0.26
7012.00,0.26
7011.00,0.26
7010.00,0.26
7009.00,0.26
7008.00,0.26
7007.00,0.26
7006.00,0.26
7005.00,0.26
7004.00,0.26
7003.00,0.26
7002.00,0.26
7001.00,0.26
7000.00,0.26
6999.00,0.26
6998.00,0.26
6997.00,0.26
6996.00,0.26
6995.00,0.26
6994.00,0.26
6993.00,0.26
6992.00,0.26
6991.00,0.26
6990.00,0.26
6989.00,0.26
6988.00,0.26
6987.00,0.26
6986.00,0.26
6985.00,0.26
6984.00,0.26
6983.00,0.26
6982.00,0.25
6981.00,0.25
6980.00,0.25
6979.00,0.25
6978.00,0.25
6977.00,0.25
6976.00,0.25
6975.00,0.25
6974.00,0.25
6973.00,0.25
6972.00,0.25
6971.00,0.25
6970.00,0.25
6969.00,0.25
6968.00,0.25
6967.00,0.25
6966.00,0.25
6965.00,0.25
6964.00,0.25
6963.00,0.25
6962.00,0.25
6961.00,0.25
6960.00,0.25
6959.00,0.25
6958.00,0.25
6957.00,0.25
6956.00,0.25
6955.00,0.25
6954.00,0.25
6953.00,0.25
6952.00,0.25
6951.00,0.25
6950.00,0.25
6949.00,0.25
6948.00,0.25
6947.00,0.25
6946.00,0.25
6945.00,0.25
6944.00,0.25
6943.00,0.25
6942.00,0.25
6941.00,0.25
6940.00,0.25
6939.00,0.25
6938.00,0.25
6937.00,0.25
6936.00,0.25
6935.00,0.25
6934.00,0.25
6933.00,0.25
6932.00,0.25
6931.00,0.25
6930.00,0.25
6929.00,0.25
6928.00,0.24
6927.00,0.24
6926.00,0.24
6925.00,0.24
6924.00,0.24
6923.00,0.24
6922.00,0.24
6921.00,0.25
6920.00,0.25
6919.00,0.25
6918.00,0.25
6917.00,0.25
6916.00,0.25
6915.00,0.25
6914.00,0.25
6913.00,0.25
6912.00,0.25
6911.00,0.25
6910.00,0.25
6909.00,0.25
6908.00,0.25
6907.00,0.25
6906.00,0.25
6905.00,0.25
6904.00,0.25
6903.00,0.25
6902.00,0.24
6901.00,0.24
6900.00,0.24
6899.00,0.24
6898.00,0.24
6897.00,0.24
6896.00,0.24
6895.00,0.24
6894.00,0.24
6893.00,0.24
6892.00,0.24
6891.00,0.24
6890.00,0.24
6889.00,0.24
6888.00,0.24
6887.00,0.24
6886.00,0.24
6885.00,0.24
6884.00,0.24
6883.00,0.24
6882.00,0.24
6881.00,0.24
6880.00,0.24
6879.00,0.24
6878.00,0.24
6877.00,0.24
6876.00,0.24
6875.00,0.25
6874.00,0.25
6873.00,0.25
6872.00,0.25
6871.00,0.25
6870.00,0.25
6869.00,0.25
6868.00,0.24
6867.00,0.24
6866.00,0.24
6865.00,0.24
6864.00,0.24
6863.00,0.24
6862.00,0.24
6861.00,0.24
6860.00,0.24
6859.00,0.24
6858.00,0.24
6857.00,0.24
6856.00,0.24
6855.00,0.24
6854.00,0.24
6853.00,0.24
6852.00,0.24
6851.00,0.25
6850.00,0.25
6849.00,0.25
6848.00,0.25
6847.00,0.25
6846.00,0.25
6845.00,0.25
6844.00,0.25
6843.00,0.25
6842.00,0.25
6841.00,0.25
6840.00,0.25
6839.00,0.25
6838.00,0.25
6837.00,0.26
6836.00,0.26
6835.00,0.26
6834.00,0.26
6833.00,0.26
6832.00,0.26
6831.00,0.26
6830.00,0.26
6829.00,0.26
6828.00,0.26
6827.00,0.25
6826.00,0.25
6825.00,0.25
6824.00,0.25
6823.00,0.26
6822.00,0.26
6821.00,0.26
6820.00,0.26
6819.00,0.26
6818.00,0.26
6817.00,0.26
6816.00,0.26
6815.00,0.26
6814.00,0.26
6813.00,0.26
6812.00,0.26
6811.00,0.26
6810.00,0.26
6809.00,0.26
6808.00,0.26
6807.00,0.26
6806.00,0.26
6805.00,0.26
6804.00,0.26
6803.00,0.26
6802.00,0.26
6801.00,0.26
6800.00,0.26
6799.00,0.26
6798.00,0.26
6797.00,0.26
6796.00,0.26
6795.00,0.26
6794.00,0.26
6793.00,0.26
6792.00,0.26
6791.00,0.26
6790.00,0.26
6789.00,0.26
6788.00,0.26
6787.00,0.26
6786.00,0.26
6785.00,0.26
6784.00,0.26
6783.00,0.26
6782.00,0.26
6781.00,0.26
6780.00,0.26
6779.00,0.26
6778.00,0.26
6777.00,0.26
6776.00,0.26
6775.00,0.26
6774.00,0.26
6773.00,0.26
6772.00,0.26
6771.00,0.26
6770.00,0.26
6769.00,0.26
6768.00,0.26
6767.00,0.26
6766.00,0.27
6765.00,0.27
6764.00,0.27
6763.00,0.27
6762.00,0.27
6761.00,0.27
6760.00,0.27
6759.00,0.27
6758.00,0.27
6757.00,0.27
6756.00,0.27
6755.00,0.27
6754.00,0.27
6753.00,0.27
6752.00,0.27
6751.00,0.27
6750.00,0.27
6749.00,0.27
6748.00,0.27
6747.00,0.27
6746.00,0.27
6745.00,0.27
6744.00,0.27
6743.00,0.27
6742.00,0.27
6741.00,0.27
6740.00,0.27
6739.00,0.27
6738.00,0.27
6737.00,0.27
6736.00,0.27
6735.00,0.27
6734.00,0.28
6733.00,0.28
6732.00,0.28
6731.00,0.28
6730.00,0.28
6729.00,0.28
6728.00,0.28
6727.00,0.28
6726.00,0.28
6725.00,0.28
6724.00,0.28
6723.00,0.28
6722.00,0.28
6721.00,0.28
6720.00,0.28
6719.00,0.28
6718.00,0.28
6717.00,0.28
6716.00,0.28
6715.00,0.29
6714.00,0.29
6713.00,0.29
6712.00,0.29
6711.00,0.29
6710.00,0.29
6709.00,0.29
6708.00,0.29
6707.00,0.29
6706.00,0.29
6705.00,0.29
6704.00,0.29
6703.00,0.29
6702.00,0.29
6701.00,0.29
6700.00,0.29
6699.00,0.29
6698.00,0.29
6697.00,0.29
6696.00,0.30
6695.00,0.30
6694.00,0.30
6693.00,0.30
6692.00,0.30
6691.00,0.30
6690.00,0.30
6689.00,0.30
6688.00,0.30
6687.00,0.30
6686.00,0.30
6685.00,0.30
6684.00,0.30
6683.00,0.30
6682.00,0.30
6681.00,0.30
6680.00,0.30
6679.00,0.30
6678.00,0.30
6677.00,0.30
6676.00,0.31
6675.00,0.31
6674.00,0.31
6673.00,0.31
6672.00,0.31
6671.00,0.31
6670.00,0.31
6669.00,0.31
6668.00,0.31
6667.00,0.31
6666.00,0.31
6665.00,0.31
6664.00,0.31
6663.00,0.31
6662.00,0.31
6661.00,0.31
6660.00,0.31
6659.00,0.31
6658.00,0.32
6657.00,0.32
6656.00,0.32
6655.00,0.32
6654.00,0.32
6653.00,0.32
6652.00,0.32
6651.00,0.32
6650.00,0.32
6649.00,0.32
6648.00,0.32
6647.00,0.32
6646.00,0.32
6645.00,0.32
6644.00,0.32
6643.00,0.32
6642.00,0.32
6641.00,0.32
6640.00,0.32
6639.00,0.32
6638.00,0.33
6637.00,0.33
6636.00,0.33
6635.00,0.33
6634.00,0.33
6633.00,0.33
6632.00,0.33
6631.00,0.33
6630.00,0.33
6629.00,0.33
6628.00,0.33
6627.00,0.33
6626.00,0.33
6625.00,0.34
6624.00,0.34
6623.00,0.34
6622.00,0.34
6621.00,0.34
6620.00,0.34
6619.00,0.34
6618.00,0.34
6617.00,0.34
6616.00,0.34
6615.00,0.35
6614.00,0.35
6613.00,0.35
6612.00,0.35
6611.00,0.35
6610.00,0.35
6609.00,0.35
6608.00,0.35
6607.00,0.35
6606.00,0.35
6605.00,0.35
6604.00,0.35
6603.00,0.35
6602.00,0.35
6601.00,0.35
6600.00,0.35
6599.00,0.35
6598.00,0.35
6597.00,0.35
6596.00,0.36
6595.00,0.36
6594.00,0.36
6593.00,0.36
6592.00,0.36
6591.00,0.36
6590.00,0.36
6589.00,0.36
6588.00,0.36
6587.00,0.36
6586.00,0.37
6585.00,0.37
6584.00,0.37
6583.00,0.37
6582.00,0.37
6581.00,0.37
6580.00,0.37
6579.00,0.37
6578.00,0.37
6577.00,0.37
6576.00,0.37
6575.00,0.37
6574.00,0.37
6573.00,0.37
6572.00,0.37
6571.00,0.37
6570.00,0.37
6569.00,0.38
6568.00,0.38
6567.00,0.38
6566.00,0.38
6565.00,0.38
6564.00,0.38
6563.00,0.38
6562.00,0.38
6561.00,0.38
6560.00,0.39
6559.00,0.39
6558.00,0.39
6557.00,0.39
6556.00,0.39
6555.00,0.39
6554.00,0.39
6553.00,0.39
6552.00,0.39
6551.00,0.40
6550.00,0.40
6549.00,0.40
6548.00,0.40
6547.00,0.40
6546.00,0.40
6545.00,0.40
6544.00,0.40
6543.00,0.40
6542.00,0.40
6541.00,0.40
6540.00,0.40
6539.00,0.40
6538.00,0.40
6537.00,0.40
6536.00,0.40
6535.00,0.40
6534.00,0.40
6533.00,0.40
6532.00,0.40
6531.00,0.41
6530.00,0.41
6529.00,0.41
6528.00,0.41
6527.00,0.41
6526.00,0.41
6525.00,0.41
6524.00,0.41
6523.00,0.41
6522.00,0.41
6521.00,0.41
6520.00,0.41
6519.00,0.41
6518.00,0.42
6517.00,0.42
6516.00,0.42
6515.00,0.42
6514.00,0.42
6513.00,0.42
6512.00,0.42
6511.00,0.42
6510.00,0.42
6509.00,0.42
6508.00,0.42
6507.00,0.42
6506.00,0.42
6505.00,0.42
6504.00,0.42
6503.00,0.42
6502.00,0.42
6501.00,0.42
6500.00,0.43
6499.00,0.43
6498.00,0.43
6497.00,0.43
6496.00,0.43
6495.00,0.43
6494.00,0.43
6493.00,0.43
6492.00,0.43
6491.00,0.43
6490.00,0.43
6489.00,0.43
6488.00,0.43
6487.00,0.43
6486.00,0.43
6485.00,0.43
6484.00,0.43
6483.00,0.43
6482.00,0.43
6481.00,0.43
6480.00,0.43
6479.00,0.43
6478.00,0.43
6477.00,0.43
6476.00,0.44
6475.00,0.44
6474.00,0.44
6473.00,0.44
6472.00,0.44
6471.00,0.44
6470.00,0.44
6469.00,0.44
6468.00,0.44
6467.00,0.44
6466.00,0.44
6465.00,0.44
6464.00,0.44
6463.00,0.44
6462.00,0.44
6461.00,0.45
6460.00,0.45
6459.00,0.45
6458.00,0.45
6457.00,0.45
6456.00,0.45
6455.00,0.45
6454.00,0.45
6453.00,0.45
6452.00,0.45
6451.00,0.45
6450.00,0.45
6449.00,0.46
6448.00,0.46
6447.00,0.46
6446.00,0.46
6445.00,0.46
6444.00,0.46
6443.00,0.46
6442.00,0.46
6441.00,0.46
6440.00,0.46
6439.00,0.46
6438.00,0.46
6437.00,0.46
6436.00,0.46
6435.00,0.46
6434.00,0.46
6433.00,0.46
6432.00,0.47
6431.00,0.47
6430.00,0.47
6429.00,0.47
6428.00,0.47
6427.00,0.47
6426.00,0.47
6425.00,0.47
6424.00,0.47
6423.00,0.47
6422.00,0.47
6421.00,0.47
6420.00,0.47
6419.00,0.47
6418.00,0.47
6417.00,0.47
6416.00,0.48
6415.00,0.48
6414.00,0.48
6413.00,0.48
6412.00,0.48
6411.00,0.48
6410.00,0.48
6409.00,0.48
6408.00,0.48
6407.00,0.48
6406.00,0.48
6405.00,0.48
6404.00,0.48
6403.00,0.48
6402.00,0.48
6401.00,0.48
6400.00,0.48
6399.00,0.49
6398.00,0.49
6397.00,0.49
6396.00,0.49
6395.00,0.49
6394.00,0.49
6393.00,0.49
6392.00,0.49
6391.00,0.49
6390.00,0.49
6389.00,0.49
6388.00,0.49
6387.00,0.49
6386.00,0.50
6385.00,0.50
6384.00,0.50
6383.00,0.50
6382.00,0.50
6381.00,0.50
6380.00,0.50
6379.00,0.50
6378.00,0.50
6377.00,0.50
6376.00,0.50
6375.00,0.50
6374.00,0.50
6373.00,0.50
6372.00,0.51
6371.00,0.51
6370.00,0.51
6369.00,0.51
6368.00,0.51
6367.00,0.51
6366.00,0.51
6365.00,0.51
6364.00,0.51
6363.00,0.51
6362.00,0.51
6361.00,0.51
6360.00,0.51
6359.00,0.51
6358.00,0.51
6357.00,0.51
6356.00,0.51
6355.00,0.51
6354.00,0.52
6353.00,0.52
6352.00,0.52
6351.00,0.52
6350.00,0.52
6349.00,0.52
6348.00,0.52
6347.00,0.52
6346.00,0.52
6345.00,0.52
6344.00,0.52
6343.00,0.53
6342.00,0.53
6341.00,0.53
6340.00,0.53
6339.00,0.53
6338.00,0.53
6337.00,0.53
6336.00,0.53
6335.00,0.53
6334.00,0.53
6333.00,0.53
6332.00,0.53
6331.00,0.54
6330.00,0.54
6329.00,0.54
6328.00,0.54
6327.00,0.54
6326.00,0.54
6325.00,0.54
6324.00,0.54
6323.00,0.54
6322.00,0.54
6321.00,0.54
6320.00,0.55
6319.00,0.55
6318.00,0.55
6317.00,0.55
6316.00,0.55
6315.00,0.55
6314.00,0.55
6313.00,0.55
6312.00,0.55
6311.00,0.55
6310.00,0.56
6309.00,0.56
6308.00,0.56
6307.00,0.56
6306.00,0.56
6305.00,0.56
6304.00,0.56
6303.00,0.56
6302.00,0.56
6301.00,0.56
6300.00,0.57
6299.00,0.57
6298.00,0.57
6297.00,0.57
6296.00,0.57
6295.00,0.57
6294.00,0.57
6293.00,0.57
6292.00,0.57
6291.00,0.57
6290.00,0.57
6289.00,0.58
6288.00,0.58
6287.00,0.58
6286.00,0.58
6285.00,0.58
6284.00,0.58
6283.00,0.58
6282.00,0.58
6281.00,0.58
6280.00,0.59
6279.00,0.59
6278.00,0.59
6277.00,0.59
6276.00,0.59
6275.00,0.59
6274.00,0.59
6273.00,0.59
6272.00,0.60
6271.00,0.60
6270.00,0.60
6269.00,0.60
6268.00,0.60
6267.00,0.60
6266.00,0.60
6265.00,0.60
6264.00,0.60
6263.00,0.61
6262.00,0.61
6261.00,0.61
6260.00,0.61
6259.00,0.61
6258.00,0.61
6257.00,0.61
6256.00,0.61
6255.00,0.62
6254.00,0.62
6253.00,0.62
6252.00,0.62
6251.00,0.62
6250.00,0.62
6249.00,0.62
6248.00,0.62
6247.00,0.62
6246.00,0.63
6245.00,0.63
6244.00,0.63
6243.00,0.63
6242.00,0.63
6241.00,0.63
6240.00,0.63
6239.00,0.63
6238.00,0.64
6237.00,0.64
6236.00,0.64
6235.00,0.64
6234.00,0.64
6233.00,0.64
6232.00,0.65
6231.00,0.65
6230.00,0.65
6229.00,0.65
6228.00,0.65
6227.00,0.65
6226.00,0.65
6225.00,0.65
6224.00,0.66
6223.00,0.66
6222.00,0.66
6221.00,0.66
6220.00,0.66
6219.00,0.66
6218.00,0.66
6217.00,0.66
6216.00,0.66
6215.00,0.67
6214.00,0.67
6213.00,0.67
6212.00,0.67
6211.00,0.67
6210.00,0.67
6209.00,0.67
6208.00,0.67
6207.00,0.67
6206.00,0.68
6205.00,0.68
6204.00,0.68
6203.00,0.68
6202.00,0.68
6201.00,0.68
6200.00,0.68
6199.00,0.68
6198.00,0.68
6197.00,0.69
6196.00,0.69
6195.00,0.69
6194.00,0.69
6193.00,0.69
6192.00,0.69
6191.00,0.69
6190.00,0.70
6189.00,0.70
6188.00,0.70
6187.00,0.70
6186.00,0.70
6185.00,0.70
6184.00,0.71
6183.00,0.71
6182.00,0.71
6181.00,0.71
6180.00,0.71
6179.00,0.71
6178.00,0.71
6177.00,0.71
6176.00,0.72
6175.00,0.72
6174.00,0.72
6173.00,0.72
6172.00,0.72
6171.00,0.72
6170.00,0.72
6169.00,0.72
6168.00,0.73
6167.00,0.73
6166.00,0.73
6165.00,0.73
6164.00,0.73
6163.00,0.73
6162.00,0.73
6161.00,0.74
6160.00,0.74
6159.00,0.74
6158.00,0.74
6157.00,0.74
6156.00,0.74
6155.00,0.75
6154.00,0.75
6153.00,0.75
6152.00,0.75
6151.00,0.75
6150.00,0.75
6149.00,0.75
6148.00,0.76
6147.00,0.76
6146.00,0.76
6145.00,0.76
6144.00,0.76
6143.00,0.76
6142.00,0.76
6141.00,0.77
6140.00,0.77
6139.00,0.77
6138.00,0.77
6137.00,0.77
6136.00,0.77
6135.00,0.77
6134.00,0.77
6133.00,0.78
6132.00,0.78
6131.00,0.78
6130.00,0.78
6129.00,0.78
6128.00,0.78
6127.00,0.78
6126.00,0.78
6125.00,0.79
6124.00,0.79
6123.00,0.79
6122.00,0.79
6121.00,0.79
6120.00,0.79
6119.00,0.79
6118.00,0.80
6117.00,0.80
6116.00,0.80
6115.00,0.80
6114.00,0.80
6113.00,0.80
6112.00,0.80
6111.00,0.81
6110.00,0.81
6109.00,0.81
6108.00,0.81
6107.00,0.81
6106.00,0.81
6105.00,0.81
6104.00,0.81
6103.00,0.81
6102.00,0.81
6101.00,0.82
6100.00,0.82
6099.00,0.82
6098.00,0.82
6097.00,0.82
6096.00,0.82
6095.00,0.82
6094.00,0.82
6093.00,0.83
6092.00,0.83
6091.00,0.83
6090.00,0.83
6089.00,0.83
6088.00,0.83
6087.00,0.83
6086.00,0.84
6085.00,0.84
6084.00,0.84
6083.00,0.84
6082.00,0.84
6081.00,0.84
6080.00,0.84
6079.00,0.85
6078.00,0.85
6077.00,0.85
6076.00,0.85
6075.00,0.85
6074.00,0.85
6073.00,0.85
6072.00,0.86
6071.00,0.86
6070.00,0.86
6069.00,0.86
6068.00,0.86
6067.00,0.86
6066.00,0.86
6065.00,0.86
6064.00,0.87
6063.00,0.87
6062.00,0.87
6061.00,0.87
6060.00,0.87
6059.00,0.87
6058.00,0.87
6057.00,0.87
6056.00,0.87
6055.00,0.88
6054.00,0.88
6053.00,0.88
6052.00,0.88
6051.00,0.88
6050.00,0.88
6049.00,0.88
6048.00,0.88
6047.00,0.88
6046.00,0.88
6045.00,0.88
6044.00,0.88
6043.00,0.88
6042.00,0.88
6041.00,0.88
6040.00,0.89
6039.00,0.89
6038.00,0.89
6037.00,0.89
6036.00,0.89
6035.00,0.89
6034.00,0.89
6033.00,0.89
6032.00,0.89
6031.00,0.89
6030.00,0.89
6029.00,0.89
6028.00,0.89
6027.00,0.90
6026.00,0.90
6025.00,0.90
6024.00,0.90
6023.00,0.90
6022.00,0.90
6021.00,0.90
6020.00,0.90
6019.00,0.90
6018.00,0.90
6017.00,0.90
6016.00,0.90
6015.00,0.90
6014.00,0.90
6013.00,0.90
6012.00,0.90
6011.00,0.90
6010.00,0.90
6009.00,0.90
6008.00,0.90
6007.00,0.90
6006.00,0.90
6005.00,0.90
6004.00,0.90
6003.00,0.90
6002.00,0.90
6001.00,0.90
6000.00,0.89
5999.00,0.89
5998.00,0.89
5997.00,0.89
5996.00,0.89
5995.00,0.89
5994.00,0.89
5993.00,0.89
5992.00,0.89
5991.00,0.88
5990.00,0.88
5989.00,0.88
5988.00,0.88
5987.00,0.87
5986.00,0.87
5985.00,0.87
5984.00,0.87
5983.00,0.86
5982.00,0.86
5981.00,0.86
5980.00,0.85
5979.00,0.85
5978.00,0.85
5977.00,0.84
5976.00,0.84
5975.00,0.83
5974.00,0.83
5973.00,0.83
5972.00,0.82
5971.00,0.82
5970.00,0.81
5969.00,0.81
5968.00,0.80
5967.00,0.80
5966.00,0.79
5965.00,0.79
5964.00,0.78
5963.00,0.77
5962.00,0.77
5961.00,0.76
5960.00,0.76
5959.00,0.75
5958.00,0.75
5957.00,0.74
5956.00,0.73
5955.00,0.73
5954.00,0.72
5953.00,0.72
5952.00,0.71
5951.00,0.71
5950.00,0.71
5949.00,0.70
5948.00,0.70
5947.00,0.69
5946.00,0.69
5945.00,0.69
5944.00,0.69
5943.00,0.68
5942.00,0.68
5941.00,0.68
5940.00,0.68
5939.00,0.68
5938.00,0.68
5937.00,0.68
5936.00,0.67
5935.00,0.67
5934.00,0.67
5933.00,0.67
5932.00,0.67
5931.00,0.67
5930.00,0.67
5929.00,0.67
5928.00,0.67
5927.00,0.67
5926.00,0.67
5925.00,0.66
5924.00,0.66
5923.00,0.66
5922.00,0.66
5921.00,0.66
5920.00,0.66
5919.00,0.65
5918.00,0.65
5917.00,0.65
5916.00,0.65
5915.00,0.64
5914.00,0.64
5913.00,0.64
5912.00,0.64
5911.00,0.64
5910.00,0.63
5909.00,0.63
5908.00,0.63
5907.00,0.63
5906.00,0.63
5905.00,0.63
5904.00,0.63
5903.00,0.63
5902.00,0.63
5901.00,0.63
5900.00,0.63
5899.00,0.63
5898.00,0.63
5897.00,0.63
5896.00,0.63
5895.00,0.63
5894.00,0.63
5893.00,0.64
5892.00,0.64
5891.00,0.64
5890.00,0.64
5889.00,0.64
5888.00,0.65
5887.00,0.65
5886.00,0.65
5885.00,0.66
5884.00,0.66
5883.00,0.66
5882.00,0.66
5881.00,0.67
5880.00,0.67
5879.00,0.67
5878.00,0.67
5877.00,0.68
5876.00,0.68
5875.00,0.68
5874.00,0.68
5873.00,0.69
5872.00,0.69
5871.00,0.69
5870.00,0.69
5869.00,0.69
5868.00,0.70
5867.00,0.70
5866.00,0.70
5865.00,0.70
5864.00,0.70
5863.00,0.70
5862.00,0.70
5861.00,0.71
5860.00,0.71
5859.00,0.71
5858.00,0.71
5857.00,0.71
5856.00,0.71
5855.00,0.71
5854.00,0.71
5853.00,0.71
5852.00,0.71
5851.00,0.71
5850.00,0.71
5849.00,0.71
5848.00,0.71
5847.00,0.71
5846.00,0.71
5845.00,0.71
5844.00,0.71
5843.00,0.71
5842.00,0.71
5841.00,0.71
5840.00,0.71
5839.00,0.71
5838.00,0.71
5837.00,0.71
5836.00,0.71
5835.00,0.71
5834.00,0.71
5833.00,0.71
5832.00,0.71
5831.00,0.71
5830.00,0.71
5829.00,0.71
5828.00,0.71
5827.00,0.71
5826.00,0.71
5825.00,0.71
5824.00,0.71
5823.00,0.71
5822.00,0.71
5821.00,0.71
5820.00,0.71
5819.00,0.71
5818.00,0.71
5817.00,0.71
5816.00,0.71
5815.00,0.71
5814.00,0.71
5813.00,0.71
5812.00,0.71
5811.00,0.71
5810.00,0.71
5809.00,0.71
5808.00,0.71
5807.00,0.71
5806.00,0.71
5805.00,0.71
5804.00,0.71
5803.00,0.71
5802.00,0.71
5801.00,0.70
5800.00,0.70
5799.00,0.70
5798.00,0.70
5797.00,0.70
5796.00,0.70
5795.00,0.69
5794.00,0.69
5793.00,0.69
5792.00,0.69
5791.00,0.69
5790.00,0.69
5789.00,0.69
5788.00,0.68
5787.00,0.68
5786.00,0.68
5785.00,0.68
5784.00,0.68
5783.00,0.68
5782.00,0.68
5781.00,0.68
5780.00,0.67
5779.00,0.67
5778.00,0.67
5777.00,0.67
5776.00,0.67
5775.00,0.67
5774.00,0.67
5773.00,0.67
5772.00,0.67
5771.00,0.67
5770.00,0.67
5769.00,0.67
5768.00,0.67
5767.00,0.67
5766.00,0.67
5765.00,0.68
5764.00,0.68
5763.00,0.68
5762.00,0.68
5761.00,0.68
5760.00,0.68
5759.00,0.69
5758.00,0.69
5757.00,0.69
5756.00,0.69
5755.00,0.70
5754.00,0.70
5753.00,0.70
5752.00,0.71
5751.00,0.71
5750.00,0.71
5749.00,0.71
5748.00,0.72
5747.00,0.72
5746.00,0.72
5745.00,0.73
5744.00,0.73
5743.00,0.73
5742.00,0.73
5741.00,0.74
5740.00,0.74
5739.00,0.74
5738.00,0.74
5737.00,0.74
5736.00,0.75
5735.00,0.75
5734.00,0.75
5733.00,0.75
5732.00,0.75
5731.00,0.75
5730.00,0.75
5729.00,0.75
5728.00,0.75
5727.00,0.76
5726.00,0.76
5725.00,0.76
5724.00,0.76
5723.00,0.76
5722.00,0.76
5721.00,0.76
5720.00,0.76
5719.00,0.76
5718.00,0.76
5717.00,0.76
5716.00,0.76
5715.00,0.76
5714.00,0.75
5713.00,0.75
5712.00,0.75
5711.00,0.75
5710.00,0.75
5709.00,0.75
5708.00,0.75
5707.00,0.75
5706.00,0.75
5705.00,0.75
5704.00,0.75
5703.00,0.75
5702.00,0.75
5701.00,0.75
5700.00,0.74
5699.00,0.74
5698.00,0.74
5697.00,0.74
5696.00,0.74
5695.00,0.74
5694.00,0.74
5693.00,0.74
5692.00,0.73
5691.00,0.73
5690.00,0.73
5689.00,0.73
5688.00,0.73
5687.00,0.73
5686.00,0.72
5685.00,0.72
5684.00,0.72
5683.00,0.72
5682.00,0.72
5681.00,0.72
5680.00,0.72
5679.00,0.72
5678.00,0.71
5677.00,0.71
5676.00,0.71
5675.00,0.71
5674.00,0.71
5673.00,0.71
5672.00,0.71
5671.00,0.71
5670.00,0.71
5669.00,0.71
5668.00,0.71
5667.00,0.71
5666.00,0.71
5665.00,0.72
5664.00,0.72
5663.00,0.72
5662.00,0.72
5661.00,0.72
5660.00,0.72
5659.00,0.72
5658.00,0.72
5657.00,0.73
5656.00,0.73
5655.00,0.73
5654.00,0.73
5653.00,0.73
5652.00,0.74
5651.00,0.74
5650.00,0.74
5649.00,0.74
5648.00,0.74
5647.00,0.74
5646.00,0.74
5645.00,0.75
5644.00,0.75
5643.00,0.75
5642.00,0.75
5641.00,0.75
5640.00,0.75
5639.00,0.75
5638.00,0.75
5637.00,0.76
5636.00,0.76
5635.00,0.76
5634.00,0.76
5633.00,0.76
5632.00,0.76
5631.00,0.76
5630.00,0.76
5629.00,0.76
5628.00,0.76
5627.00,0.76
5626.00,0.76
5625.00,0.77
5624.00,0.77
5623.00,0.77
5622.00,0.77
5621.00,0.77
5620.00,0.77
5619.00,0.77
5618.00,0.77
5617.00,0.77
5616.00,0.78
5615.00,0.78
5614.00,0.78
5613.00,0.78
5612.00,0.78
5611.00,0.78
5610.00,0.78
5609.00,0.79
5608.00,0.79
5607.00,0.79
5606.00,0.79
5605.00,0.79
5604.00,0.79
5603.00,0.79
5602.00,0.80
5601.00,0.80
5600.00,0.80
5599.00,0.80
5598.00,0.80
5597.00,0.80
5596.00,0.81
5595.00,0.81
5594.00,0.81
5593.00,0.81
5592.00,0.81
5591.00,0.82
5590.00,0.82
5589.00,0.82
5588.00,0.82
5587.00,0.82
5586.00,0.82
5585.00,0.83
5584.00,0.83
5583.00,0.83
5582.00,0.83
5581.00,0.83
5580.00,0.83
5579.00,0.84
5578.00,0.84
5577.00,0.84
5576.00,0.84
5575.00,0.84
5574.00,0.84
5573.00,0.84
5572.00,0.84
5571.00,0.85
5570.00,0.85
5569.00,0.85
5568.00,0.85
5567.00,0.85
5566.00,0.85
5565.00,0.85
5564.00,0.85
5563.00,0.86
5562.00,0.86
5561.00,0.86
5560.00,0.86
5559.00,0.86
5558.00,0.86
5557.00,0.86
5556.00,0.86
5555.00,0.86
5554.00,0.86
5553.00,0.87
5552.00,0.87
5551.00,0.87
5550.00,0.87
5549.00,0.87
5548.00,0.87
5547.00,0.87
5546.00,0.87
5545.00,0.87
5544.00,0.88
5543.00,0.88
5542.00,0.88
5541.00,0.88
5540.00,0.88
5539.00,0.88
5538.00,0.88
5537.00,0.89
5536.00,0.89
5535.00,0.89
5534.00,0.89
5533.00,0.89
5532.00,0.89
5531.00,0.89
5530.00,0.90
5529.00,0.90
5528.00,0.90
5527.00,0.90
5526.00,0.90
5525.00,0.90
5524.00,0.90
5523.00,0.90
5522.00,0.90
5521.00,0.90
5520.00,0.90
5519.00,0.90
5518.00,0.90
5517.00,0.90
5516.00,0.90
5515.00,0.90
5514.00,0.90
5513.00,0.90
5512.00,0.91
5511.00,0.91
5510.00,0.91
5509.00,0.91
5508.00,0.91
5507.00,0.91
5506.00,0.91
5505.00,0.91
5504.00,0.91
5503.00,0.91
5502.00,0.91
5501.00,0.91
5500.00,0.91
5499.00,0.91
5498.00,0.91
5497.00,0.91
5496.00,0.92
5495.00,0.92
5494.00,0.92
5493.00,0.92
5492.00,0.92
5491.00,0.92
5490.00,0.92
5489.00,0.92
5488.00,0.92
5487.00,0.93
5486.00,0.93
5485.00,0.93
5484.00,0.93
5483.00,0.93
5482.00,0.93
5481.00,0.93
5480.00,0.93
5479.00,0.93
5478.00,0.94
5477.00,0.94
5476.00,0.94
5475.00,0.94
5474.00,0.94
5473.00,0.94
5472.00,0.94
5471.00,0.94
5470.00,0.94
5469.00,0.94
5468.00,0.94
5467.00,0.95
5466.00,0.95
5465.00,0.95
5464.00,0.95
5463.00,0.95
5462.00,0.95
5461.00,0.95
5460.00,0.95
5459.00,0.96
5458.00,0.96
5457.00,0.96
5456.00,0.96
5455.00,0.96
5454.00,0.96
5453.00,0.96
5452.00,0.96
5451.00,0.96
5450.00,0.96
5449.00,0.96
5448.00,0.96
5447.00,0.96
5446.00,0.96
5445.00,0.96
5444.00,0.96
5443.00,0.96
5442.00,0.96
5441.00,0.96
5440.00,0.96
5439.00,0.96
5438.00,0.96
5437.00,0.96
5436.00,0.96
5435.00,0.96
5434.00,0.96
5433.00,0.96
5432.00,0.96
5431.00,0.96
5430.00,0.96
5429.00,0.96
5428.00,0.96
5427.00,0.96
5426.00,0.96
5425.00,0.96
5424.00,0.96
5423.00,0.96
5422.00,0.96
5421.00,0.96
5420.00,0.96
5419.00,0.96
5418.00,0.96
5417.00,0.96
5416.00,0.96
5415.00,0.96
5414.00,0.96
5413.00,0.96
5412.00,0.96
5411.00,0.96
5410.00,0.96
5409.00,0.96
5408.00,0.96
5407.00,0.96
5406.00,0.96
5405.00,0.96
5404.00,0.96
5403.00,0.96
5402.00,0.95
5401.00,0.95
5400.00,0.95
5399.00,0.95
5398.00,0.95
5397.00,0.95
5396.00,0.95
5395.00,0.94
5394.00,0.94
5393.00,0.94
5392.00,0.94
5391.00,0.93
5390.00,0.93
5389.00,0.93
5388.00,0.92
5387.00,0.92
5386.00,0.92
5385.00,0.91
5384.00,0.91
5383.00,0.90
5382.00,0.90
5381.00,0.90
5380.00,0.89
5379.00,0.89
5378.00,0.88
5377.00,0.88
5376.00,0.87
5375.00,0.87
5374.00,0.86
5373.00,0.86
5372.00,0.85
5371.00,0.85
5370.00,0.84
5369.00,0.84
5368.00,0.83
5367.00,0.83
5366.00,0.82
5365.00,0.82
5364.00,0.81
5363.00,0.81
5362.00,0.80
5361.00,0.79
5360.00,0.79
5359.00,0.78
5358.00,0.77
5357.00,0.77
5356.00,0.76
5355.00,0.75
5354.00,0.74
5353.00,0.74
5352.00,0.73
5351.00,0.72
5350.00,0.71
5349.00,0.70
5348.00,0.70
5347.00,0.69
5346.00,0.68
5345.00,0.67
5344.00,0.66
5343.00,0.65
5342.00,0.65
5341.00,0.64
5340.00,0.63
5339.00,0.62
5338.00,0.62
5337.00,0.61
5336.00,0.60
5335.00,0.59
5334.00,0.59
5333.00,0.58
5332.00,0.57
5331.00,0.57
5330.00,0.56
5329.00,0.55
5328.00,0.55
5327.00,0.54
5326.00,0.53
5325.00,0.53
5324.00,0.52
5323.00,0.52
5322.00,0.51
5321.00,0.50
5320.00,0.50
5319.00,0.49
5318.00,0.49
5317.00,0.48
5316.00,0.48
5315.00,0.47
5314.00,0.47
5313.00,0.46
5312.00,0.46
5311.00,0.45
5310.00,0.45
5309.00,0.45
5308.00,0.44
5307.00,0.44
5306.00,0.43
5305.00,0.43
5304.00,0.43
5303.00,0.43
5302.00,0.42
5301.00,0.42
5300.00,0.42
5299.00,0.42
5298.00,0.42
5297.00,0.41
5296.00,0.41
5295.00,0.41
5294.00,0.41
5293.00,0.41
5292.00,0.41
5291.00,0.41
5290.00,0.41
5289.00,0.41
5288.00,0.41
5287.00,0.41
5286.00,0.40
5285.00,0.40
5284.00,0.40
5283.00,0.40
5282.00,0.40
5281.00,0.40
5280.00,0.40
5279.00,0.40
5278.00,0.40
5277.00,0.40
5276.00,0.40
5275.00,0.40
5274.00,0.40
5273.00,0.40
5272.00,0.40
5271.00,0.40
5270.00,0.40
5269.00,0.40
5268.00,0.40
5267.00,0.40
5266.00,0.40
5265.00,0.40
5264.00,0.40
5263.00,0.40
5262.00,0.40
5261.00,0.40
5260.00,0.40
5259.00,0.40
5258.00,0.40
5257.00,0.40
5256.00,0.40
5255.00,0.40
5254.00,0.40
5253.00,0.40
5252.00,0.40
5251.00,0.40
5250.00,0.40
5249.00,0.40
5248.00,0.40
5247.00,0.40
5246.00,0.40
5245.00,0.40
5244.00,0.40
5243.00,0.40
5242.00,0.40
5241.00,0.40
5240.00,0.40
5239.00,0.41
5238.00,0.41
5237.00,0.41
5236.00,0.41
5235.00,0.41
5234.00,0.41
5233.00,0.41
5232.00,0.41
5231.00,0.41
5230.00,0.41
5229.00,0.41
5228.00,0.41
5227.00,0.41
5226.00,0.41
5225.00,0.41
5224.00,0.41
5223.00,0.41
5222.00,0.41
5221.00,0.41
5220.00,0.41
5219.00,0.42
5218.00,0.42
5217.00,0.42
5216.00,0.42
5215.00,0.42
5214.00,0.42
5213.00,0.42
5212.00,0.42
5211.00,0.42
5210.00,0.42
5209.00,0.42
5208.00,0.42
5207.00,0.42
5206.00,0.42
5205.00,0.42
5204.00,0.42
5203.00,0.42
5202.00,0.42
5201.00,0.42
5200.00,0.42
5199.00,0.42
5198.00,0.43
5197.00,0.43
5196.00,0.43
5195.00,0.43
5194.00,0.43
5193.00,0.43
5192.00,0.43
5191.00,0.43
5190.00,0.43
5189.00,0.43
5188.00,0.43
5187.00,0.43
5186.00,0.43
5185.00,0.43
5184.00,0.43
5183.00,0.43
5182.00,0.43
5181.00,0.43
5180.00,0.43
5179.00,0.43
5178.00,0.43
5177.00,0.43
5176.00,0.43
5175.00,0.43
5174.00,0.43
5173.00,0.43
5172.00,0.43
5171.00,0.43
5170.00,0.43
5169.00,0.43
5168.00,0.44
5167.00,0.44
5166.00,0.44
5165.00,0.44
5164.00,0.44
5163.00,0.44
5162.00,0.44
5161.00,0.44
5160.00,0.44
5159.00,0.44
5158.00,0.44
5157.00,0.44
5156.00,0.44
5155.00,0.44
5154.00,0.44
5153.00,0.44
5152.00,0.44
5151.00,0.44
5150.00,0.44
5149.00,0.44
5148.00,0.44
5147.00,0.44
5146.00,0.44
5145.00,0.44
5144.00,0.44
5143.00,0.44
5142.00,0.44
5141.00,0.44
5140.00,0.44
5139.00,0.44
5138.00,0.44
5137.00,0.44
5136.00,0.44
5135.00,0.44
5134.00,0.44
5133.00,0.44
5132.00,0.44
5131.00,0.44
5130.00,0.44
5129.00,0.44
5128.00,0.44
5127.00,0.44
5126.00,0.44
5125.00,0.44
5124.00,0.44
5123.00,0.44
5122.00,0.45
5121.00,0.45
5120.00,0.45
5119.00,0.45
5118.00,0.45
5117.00,0.45
5116.00,0.45
5115.00,0.45
5114.00,0.45
5113.00,0.45
5112.00,0.45
5111.00,0.45
5110.00,0.45
5109.00,0.45
5108.00,0.45
5107.00,0.45
5106.00,0.45
5105.00,0.45
5104.00,0.45
5103.00,0.45
5102.00,0.45
5101.00,0.45
5100.00,0.45
5099.00,0.45
5098.00,0.45
5097.00,0.45
5096.00,0.45
5095.00,0.45
5094.00,0.45
5093.00,0.46
5092.00,0.46
5091.00,0.46
5090.00,0.46
5089.00,0.46
5088.00,0.46
5087.00,0.46
5086.00,0.46
5085.00,0.46
5084.00,0.46
5083.00,0.46
5082.00,0.46
5081.00,0.46
5080.00,0.46
5079.00,0.46
5078.00,0.46
5077.00,0.46
5076.00,0.46
5075.00,0.46
5074.00,0.46
5073.00,0.46
5072.00,0.46
5071.00,0.46
5070.00,0.46
5069.00,0.46
5068.00,0.46
5067.00,0.46
5066.00,0.46
5065.00,0.47
5064.00,0.47
5063.00,0.47
5062.00,0.47
5061.00,0.47
5060.00,0.47
5059.00,0.47
5058.00,0.47
5057.00,0.47
5056.00,0.47
5055.00,0.47
5054.00,0.47
5053.00,0.47
5052.00,0.47
5051.00,0.47
5050.00,0.47
5049.00,0.47
5048.00,0.47
5047.00,0.47
5046.00,0.47
5045.00,0.47
5044.00,0.47
5043.00,0.47
5042.00,0.47
5041.00,0.47
5040.00,0.48
5039.00,0.48
5038.00,0.48
5037.00,0.48
5036.00,0.48
5035.00,0.48
5034.00,0.48
5033.00,0.48
5032.00,0.48
5031.00,0.48
5030.00,0.48
5029.00,0.48
5028.00,0.48
5027.00,0.48
5026.00,0.48
5025.00,0.48
5024.00,0.48
5023.00,0.48
5022.00,0.48
5021.00,0.48
5020.00,0.48
5019.00,0.48
5018.00,0.48
5017.00,0.48
5016.00,0.49
5015.00,0.49
5014.00,0.49
5013.00,0.49
5012.00,0.49
5011.00,0.49
5010.00,0.49
5009.00,0.49
5008.00,0.49
5007.00,0.49
5006.00,0.49
5005.00,0.49
5004.00,0.49
5003.00,0.49
5002.00,0.49
5001.00,0.49
5000.00,0.49
4999.00,0.49
4998.00,0.49
4997.00,0.49
4996.00,0.49
4995.00,0.49
4994.00,0.49
4993.00,0.49
4992.00,0.49
4991.00,0.49
4990.00,0.49
4989.00,0.49
4988.00,0.49
4987.00,0.49
4986.00,0.50
4985.00,0.50
4984.00,0.50
4983.00,0.50
4982.00,0.50
4981.00,0.50
4980.00,0.50
4979.00,0.50
4978.00,0.50
4977.00,0.50
4976.00,0.50
4975.00,0.50
4974.00,0.50
4973.00,0.51
4972.00,0.51
4971.00,0.51
4970.00,0.51
4969.00,0.51
4968.00,0.51
4967.00,0.51
4966.00,0.51
4965.00,0.51
4964.00,0.51
4963.00,0.51
4962.00,0.51
4961.00,0.51
4960.00,0.51
4959.00,0.51
4958.00,0.51
4957.00,0.51
4956.00,0.51
4955.00,0.51
4954.00,0.51
4953.00,0.51
4952.00,0.51
4951.00,0.51
4950.00,0.51
4949.00,0.51
4948.00,0.51
4947.00,0.51
4946.00,0.51
4945.00,0.51
4944.00,0.52
4943.00,0.52
4942.00,0.52
4941.00,0.52
4940.00,0.52
4939.00,0.52
4938.00,0.52
4937.00,0.52
4936.00,0.52
4935.00,0.52
4934.00,0.52
4933.00,0.52
4932.00,0.52
4931.00,0.52
4930.00,0.52
4929.00,0.52
4928.00,0.52
4927.00,0.52
4926.00,0.53
4925.00,0.53
4924.00,0.53
4923.00,0.53
4922.00,0.53
4921.00,0.53
4920.00,0.53
4919.00,0.53
4918.00,0.53
4917.00,0.53
4916.00,0.53
4915.00,0.53
4914.00,0.53
4913.00,0.53
4912.00,0.53
4911.00,0.53
4910.00,0.54
4909.00,0.54
4908.00,0.54
4907.00,0.54
4906.00,0.54
4905.00,0.54
4904.00,0.54
4903.00,0.54
4902.00,0.54
4901.00,0.54
4900.00,0.54
4899.00,0.54
4898.00,0.54
4897.00,0.54
4896.00,0.54
4895.00,0.54
4894.00,0.54
4893.00,0.54
4892.00,0.54
4891.00,0.54
4890.00,0.54
4889.00,0.54
4888.00,0.54
4887.00,0.54
4886.00,0.54
4885.00,0.54
4884.00,0.55
4883.00,0.55
4882.00,0.55
4881.00,0.55
4880.00,0.55
4879.00,0.55
4878.00,0.55
4877.00,0.55
4876.00,0.55
4875.00,0.55
4874.00,0.56
4873.00,0.56
4872.00,0.56
4871.00,0.56
4870.00,0.56
4869.00,0.56
4868.00,0.56
4867.00,0.56
4866.00,0.55
4865.00,0.55
4864.00,0.55
4863.00,0.55
4862.00,0.55
4861.00,0.55
4860.00,0.55
4859.00,0.55
4858.00,0.55
4857.00,0.55
4856.00,0.55
4855.00,0.55
4854.00,0.55
4853.00,0.55
4852.00,0.55
4851.00,0.56
4850.00,0.56
4849.00,0.56
4848.00,0.56
4847.00,0.56
4846.00,0.56
4845.00,0.56
4844.00,0.56
4843.00,0.56
4842.00,0.56
4841.00,0.56
4840.00,0.56
4839.00,0.56
4838.00,0.56
4837.00,0.56
4836.00,0.56
4835.00,0.56
4834.00,0.56
4833.00,0.56
4832.00,0.56
4831.00,0.57
4830.00,0.57
4829.00,0.57
4828.00,0.57
4827.00,0.57
4826.00,0.57
4825.00,0.57
4824.00,0.57
4823.00,0.57
4822.00,0.57
4821.00,0.57
4820.00,0.57
4819.00,0.57
4818.00,0.57
4817.00,0.57
4816.00,0.57
4815.00,0.57
4814.00,0.57
4813.00,0.57
4812.00,0.57
4811.00,0.57
4810.00,0.58
4809.00,0.58
4808.00,0.58
4807.00,0.58
4806.00,0.58
4805.00,0.58
4804.00,0.58
4803.00,0.58
4802.00,0.58
4801.00,0.58
4800.00,0.58
4799.00,0.58
4798.00,0.58
4797.00,0.59
4796.00,0.59
4795.00,0.59
4794.00,0.59
4793.00,0.59
4792.00,0.59
4791.00,0.59
4790.00,0.59
4789.00,0.59
4788.00,0.59
4787.00,0.59
4786.00,0.59
4785.00,0.59
4784.00,0.60
4783.00,0.60
4782.00,0.60
4781.00,0.60
4780.00,0.60
4779.00,0.60
4778.00,0.60
4777.00,0.60
4776.00,0.60
4775.00,0.60
4774.00,0.60
4773.00,0.61
4772.00,0.61
4771.00,0.61
4770.00,0.61
4769.00,0.61
4768.00,0.61
4767.00,0.61
4766.00,0.61
4765.00,0.61
4764.00,0.61
4763.00,0.61
4762.00,0.61
4761.00,0.61
4760.00,0.61
4759.00,0.61
4758.00,0.62
4757.00,0.62
4756.00,0.62
4755.00,0.62
4754.00,0.62
4753.00,0.62
4752.00,0.62
4751.00,0.62
4750.00,0.62
4749.00,0.62
4748.00,0.62
4747.00,0.63
4746.00,0.63
4745.00,0.63
4744.00,0.63
4743.00,0.63
4742.00,0.63
4741.00,0.63
4740.00,0.63
4739.00,0.63
4738.00,0.63
4737.00,0.64
4736.00,0.64
4735.00,0.64
4734.00,0.64
4733.00,0.64
4732.00,0.64
4731.00,0.64
4730.00,0.64
4729.00,0.64
4728.00,0.64
4727.00,0.64
4726.00,0.64
4725.00,0.64
4724.00,0.64
4723.00,0.64
4722.00,0.64
4721.00,0.64
4720.00,0.64
4719.00,0.65
4718.00,0.65
4717.00,0.65
4716.00,0.65
4715.00,0.65
4714.00,0.65
4713.00,0.65
4712.00,0.65
4711.00,0.65
4710.00,0.66
4709.00,0.66
4708.00,0.66
4707.00,0.66
4706.00,0.66
4705.00,0.66
4704.00,0.66
4703.00,0.66
4702.00,0.66
4701.00,0.66
4700.00,0.66
4699.00,0.67
4698.00,0.67
4697.00,0.67
4696.00,0.67
4695.00,0.67
4694.00,0.67
4693.00,0.67
4692.00,0.67
4691.00,0.67
4690.00,0.67
4689.00,0.67
4688.00,0.68
4687.00,0.68
4686.00,0.68
4685.00,0.68
4684.00,0.68
4683.00,0.68
4682.00,0.68
4681.00,0.68
4680.00,0.68
4679.00,0.68
4678.00,0.68
4677.00,0.68
4676.00,0.69
4675.00,0.69
4674.00,0.69
4673.00,0.69
4672.00,0.69
4671.00,0.69
4670.00,0.69
4669.00,0.69
4668.00,0.69
4667.00,0.69
4666.00,0.69
4665.00,0.69
4664.00,0.70
4663.00,0.70
4662.00,0.70
4661.00,0.70
4660.00,0.70
4659.00,0.70
4658.00,0.70
4657.00,0.70
4656.00,0.70
4655.00,0.71
4654.00,0.71
4653.00,0.71
4652.00,0.71
4651.00,0.71
4650.00,0.71
4649.00,0.71
4648.00,0.71
4647.00,0.71
4646.00,0.71
4645.00,0.72
4644.00,0.72
4643.00,0.72
4642.00,0.72
4641.00,0.72
4640.00,0.72
4639.00,0.72
4638.00,0.72
4637.00,0.72
4636.00,0.72
4635.00,0.73
4634.00,0.73
4633.00,0.73
4632.00,0.73
4631.00,0.73
4630.00,0.73
4629.00,0.73
4628.00,0.73
4627.00,0.73
4626.00,0.73
4625.00,0.73
4624.00,0.73
4623.00,0.73
4622.00,0.73
4621.00,0.73
4620.00,0.73
4619.00,0.73
4618.00,0.73
4617.00,0.73
4616.00,0.73
4615.00,0.73
4614.00,0.74
4613.00,0.74
4612.00,0.74
4611.00,0.74
4610.00,0.74
4609.00,0.74
4608.00,0.74
4607.00,0.74
4606.00,0.74
4605.00,0.74
4604.00,0.75
4603.00,0.75
4602.00,0.75
4601.00,0.75
4600.00,0.75
4599.00,0.75
4598.00,0.75
4597.00,0.75
4596.00,0.75
4595.00,0.76
4594.00,0.76
4593.00,0.76
4592.00,0.76
4591.00,0.76
4590.00,0.76
4589.00,0.76
4588.00,0.76
4587.00,0.76
4586.00,0.76
4585.00,0.77
4584.00,0.77
4583.00,0.77
4582.00,0.77
4581.00,0.77
4580.00,0.77
4579.00,0.77
4578.00,0.77
4577.00,0.77
4576.00,0.77
4575.00,0.77
4574.00,0.77
4573.00,0.77
4572.00,0.77
4571.00,0.77
4570.00,0.77
4569.00,0.77
4568.00,0.77
4567.00,0.77
4566.00,0.78
4565.00,0.78
4564.00,0.78
4563.00,0.78
4562.00,0.78
4561.00,0.78
4560.00,0.78
4559.00,0.78
4558.00,0.78
4557.00,0.78
4556.00,0.78
4555.00,0.78
4554.00,0.78
4553.00,0.78
4552.00,0.78
4551.00,0.78
4550.00,0.78
4549.00,0.78
4548.00,0.78
4547.00,0.78
4546.00,0.78
4545.00,0.78
4544.00,0.78
4543.00,0.78
4542.00,0.78
4541.00,0.79
4540.00,0.79
4539.00,0.79
4538.00,0.79
4537.00,0.79
4536.00,0.79
4535.00,0.79
4534.00,0.79
4533.00,0.79
4532.00,0.79
4531.00,0.79
4530.00,0.79
4529.00,0.79
4528.00,0.79
4527.00,0.79
4526.00,0.79
4525.00,0.80
4524.00,0.80
4523.00,0.80
4522.00,0.80
4521.00,0.80
4520.00,0.80
4519.00,0.80
4518.00,0.80
4517.00,0.80
4516.00,0.80
4515.00,0.80
4514.00,0.80
4513.00,0.80
4512.00,0.80
4511.00,0.80
4510.00,0.80
4509.00,0.80
4508.00,0.80
4507.00,0.80
4506.00,0.80
4505.00,0.80
4504.00,0.80
4503.00,0.80
4502.00,0.80
4501.00,0.80
4500.00,0.80
4499.00,0.81
4498.00,0.81
4497.00,0.81
4496.00,0.81
4495.00,0.81
4494.00,0.81
4493.00,0.81
4492.00,0.81
4491.00,0.81
4490.00,0.80
4489.00,0.80
4488.00,0.80
4487.00,0.80
4486.00,0.80
4485.00,0.80
4484.00,0.80
4483.00,0.80
4482.00,0.80
4481.00,0.80
4480.00,0.79
4479.00,0.79
4478.00,0.79
4477.00,0.79
4476.00,0.79
4475.00,0.79
4474.00,0.79
4473.00,0.79
4472.00,0.79
4471.00,0.79
4470.00,0.79
4469.00,0.79
4468.00,0.79
4467.00,0.79
4466.00,0.78
4465.00,0.78
4464.00,0.78
4463.00,0.78
4462.00,0.78
4461.00,0.78
4460.00,0.78
4459.00,0.78
4458.00,0.78
4457.00,0.78
4456.00,0.77
4455.00,0.77
4454.00,0.77
4453.00,0.77
4452.00,0.77
4451.00,0.77
4450.00,0.76
4449.00,0.76
4448.00,0.76
4447.00,0.76
4446.00,0.75
4445.00,0.75
4444.00,0.75
4443.00,0.75
4442.00,0.75
4441.00,0.74
4440.00,0.74
4439.00,0.74
4438.00,0.74
4437.00,0.74
4436.00,0.73
4435.00,0.73
4434.00,0.73
4433.00,0.73
4432.00,0.73
4431.00,0.73
4430.00,0.73
4429.00,0.73
4428.00,0.73
4427.00,0.73
4426.00,0.73
4425.00,0.72
4424.00,0.72
4423.00,0.72
4422.00,0.72
4421.00,0.72
4420.00,0.72
4419.00,0.73
4418.00,0.73
4417.00,0.73
4416.00,0.73
4415.00,0.73
4414.00,0.73
4413.00,0.73
4412.00,0.73
4411.00,0.73
4410.00,0.73
4409.00,0.73
4408.00,0.73
4407.00,0.73
4406.00,0.73
4405.00,0.74
4404.00,0.74
4403.00,0.74
4402.00,0.74
4401.00,0.74
4400.00,0.74
4399.00,0.74
4398.00,0.74
4397.00,0.74
4396.00,0.74
4395.00,0.74
4394.00,0.74
4393.00,0.74
4392.00,0.74
4391.00,0.74
4390.00,0.74
4389.00,0.74
4388.00,0.74
4387.00,0.74
4386.00,0.74
4385.00,0.75
4384.00,0.75
4383.00,0.75
4382.00,0.75
4381.00,0.75
4380.00,0.75
4379.00,0.75
4378.00,0.75
4377.00,0.75
4376.00,0.75
4375.00,0.75
4374.00,0.75
4373.00,0.76
4372.00,0.76
4371.00,0.76
4370.00,0.76
4369.00,0.76
4368.00,0.76
4367.00,0.76
4366.00,0.76
4365.00,0.76
4364.00,0.76
4363.00,0.76
4362.00,0.76
4361.00,0.76
4360.00,0.76
4359.00,0.76
4358.00,0.76
4357.00,0.76
4356.00,0.76
4355.00,0.76
4354.00,0.76
4353.00,0.76
4352.00,0.76
4351.00,0.76
4350.00,0.76
4349.00,0.76
4348.00,0.76
4347.00,0.76
4346.00,0.76
4345.00,0.76
4344.00,0.76
4343.00,0.76
4342.00,0.76
4341.00,0.76
4340.00,0.76
4339.00,0.76
4338.00,0.76
4337.00,0.76
4336.00,0.76
4335.00,0.76
4334.00,0.76
4333.00,0.76
4332.00,0.76
4331.00,0.77
4330.00,0.77
4329.00,0.77
4328.00,0.77
4327.00,0.77
4326.00,0.77
4325.00,0.77
4324.00,0.77
4323.00,0.77
4322.00,0.77
4321.00,0.77
4320.00,0.77
4319.00,0.78
4318.00,0.78
4317.00,0.78
4316.00,0.78
4315.00,0.78
4314.00,0.78
4313.00,0.78
4312.00,0.78
4311.00,0.78
4310.00,0.78
4309.00,0.79
4308.00,0.79
4307.00,0.79
4306.00,0.79
4305.00,0.79
4304.00,0.79
4303.00,0.80
4302.00,0.80
4301.00,0.80
4300.00,0.80
4299.00,0.80
4298.00,0.80
4297.00,0.81
4296.00,0.81
4295.00,0.81
4294.00,0.81
4293.00,0.81
4292.00,0.81
4291.00,0.81
4290.00,0.81
4289.00,0.81
4288.00,0.82
4287.00,0.82
4286.00,0.82
4285.00,0.82
4284.00,0.82
4283.00,0.82
4282.00,0.82
4281.00,0.82
4280.00,0.82
4279.00,0.82
4278.00,0.82
4277.00,0.82
4276.00,0.82
4275.00,0.82
4274.00,0.82
4273.00,0.82
4272.00,0.82
4271.00,0.82
4270.00,0.82
4269.00,0.82
4268.00,0.82
4267.00,0.82
4266.00,0.82
4265.00,0.82
4264.00,0.82
4263.00,0.82
4262.00,0.82
4261.00,0.81
4260.00,0.81
4259.00,0.81
4258.00,0.81
4257.00,0.81
4256.00,0.81
4255.00,0.81
4254.00,0.81
4253.00,0.81
4252.00,0.82
4251.00,0.82
4250.00,0.82
4249.00,0.82
4248.00,0.82
4247.00,0.82
4246.00,0.82
4245.00,0.82
4244.00,0.82
4243.00,0.82
4242.00,0.82
4241.00,0.82
4240.00,0.82
4239.00,0.82
4238.00,0.82
4237.00,0.83
4236.00,0.83
4235.00,0.83
4234.00,0.83
4233.00,0.83
4232.00,0.83
4231.00,0.83
4230.00,0.84
4229.00,0.84
4228.00,0.84
4227.00,0.84
4226.00,0.84
4225.00,0.85
4224.00,0.85
4223.00,0.85
4222.00,0.85
4221.00,0.85
4220.00,0.85
4219.00,0.85
4218.00,0.85
4217.00,0.86
4216.00,0.86
4215.00,0.86
4214.00,0.86
4213.00,0.86
4212.00,0.86
4211.00,0.86
4210.00,0.86
4209.00,0.86
4208.00,0.86
4207.00,0.86
4206.00,0.86
4205.00,0.85
4204.00,0.85
4203.00,0.85
4202.00,0.85
4201.00,0.85
4200.00,0.85
4199.00,0.85
4198.00,0.85
4197.00,0.85
4196.00,0.85
4195.00,0.85
4194.00,0.85
4193.00,0.85
4192.00,0.85
4191.00,0.85
4190.00,0.85
4189.00,0.85
4188.00,0.85
4187.00,0.85
4186.00,0.85
4185.00,0.86
4184.00,0.86
4183.00,0.86
4182.00,0.86
4181.00,0.86
4180.00,0.86
4179.00,0.86
4178.00,0.86
4177.00,0.86
4176.00,0.87
4175.00,0.87
4174.00,0.87
4173.00,0.87
4172.00,0.87
4171.00,0.87
4170.00,0.87
4169.00,0.88
4168.00,0.88
4167.00,0.88
4166.00,0.88
4165.00,0.88
4164.00,0.88
4163.00,0.88
4162.00,0.88
4161.00,0.88
4160.00,0.88
4159.00,0.88
4158.00,0.88
4157.00,0.88
4156.00,0.88
4155.00,0.88
4154.00,0.88
4153.00,0.88
4152.00,0.88
4151.00,0.88
4150.00,0.88
4149.00,0.88
4148.00,0.88
4147.00,0.89
4146.00,0.89
4145.00,0.89
4144.00,0.89
4143.00,0.89
4142.00,0.89
4141.00,0.89
4140.00,0.89
4139.00,0.89
4138.00,0.89
4137.00,0.89
4136.00,0.89
4135.00,0.89
4134.00,0.89
4133.00,0.89
4132.00,0.90
4131.00,0.90
4130.00,0.90
4129.00,0.90
4128.00,0.90
4127.00,0.90
4126.00,0.90
4125.00,0.90
4124.00,0.90
4123.00,0.90
4122.00,0.90
4121.00,0.90
4120.00,0.90
4119.00,0.90
4118.00,0.90
4117.00,0.90
4116.00,0.90
4115.00,0.90
4114.00,0.89
4113.00,0.89
4112.00,0.89
4111.00,0.89
4110.00,0.89
4109.00,0.89
4108.00,0.89
4107.00,0.89
4106.00,0.89
4105.00,0.89
4104.00,0.89
4103.00,0.90
4102.00,0.90
4101.00,0.90
4100.00,0.90
4099.00,0.90
4098.00,0.90
4097.00,0.90
4096.00,0.90
4095.00,0.90
4094.00,0.90
4093.00,0.90
4092.00,0.91
4091.00,0.91
4090.00,0.91
4089.00,0.91
4088.00,0.91
4087.00,0.91
4086.00,0.91
4085.00,0.91
4084.00,0.91
4083.00,0.91
4082.00,0.91
4081.00,0.91
4080.00,0.91
4079.00,0.91
4078.00,0.91
4077.00,0.91
4076.00,0.91
4075.00,0.91
4074.00,0.91
4073.00,0.90
4072.00,0.90
4071.00,0.90
4070.00,0.90
4069.00,0.90
4068.00,0.90
4067.00,0.90
4066.00,0.90
4065.00,0.90
4064.00,0.90
4063.00,0.90
4062.00,0.90
4061.00,0.90
4060.00,0.90
4059.00,0.91
4058.00,0.91
4057.00,0.91
4056.00,0.91
4055.00,0.91
4054.00,0.91
4053.00,0.91
4052.00,0.92
4051.00,0.92
4050.00,0.92
4049.00,0.92
4048.00,0.92
4047.00,0.93
4046.00,0.93
4045.00,0.93
4044.00,0.93
4043.00,0.93
4042.00,0.93
4041.00,0.94
4040.00,0.94
4039.00,0.94
4038.00,0.94
4037.00,0.94
4036.00,0.94
4035.00,0.94
4034.00,0.94
4033.00,0.94
4032.00,0.94
4031.00,0.94
4030.00,0.94
4029.00,0.94
4028.00,0.94
4027.00,0.94
4026.00,0.94
4025.00,0.94
4024.00,0.94
4023.00,0.94
4022.00,0.94
4021.00,0.94
4020.00,0.95
4019.00,0.95
4018.00,0.94
4017.00,0.94
4016.00,0.94
4015.00,0.94
4014.00,0.94
4013.00,0.94
4012.00,0.94
4011.00,0.94
4010.00,0.94
4009.00,0.95
4008.00,0.95
4007.00,0.95
4006.00,0.95
4005.00,0.95
4004.00,0.95
4003.00,0.96
4002.00,0.96
4001.00,0.96
4000.00,0.97
