创建为新数据集,样品 444 用户 Administrator 日期 星期日, 七月 15 2018
cm-1,%T
10000.00,0.83
9999.00,0.83
9998.00,0.83
9997.00,0.83
9996.00,0.84
9995.00,0.84
9994.00,0.84
9993.00,0.84
9992.00,0.84
9991.00,0.83
9990.00,0.83
9989.00,0.83
9988.00,0.83
9987.00,0.83
9986.00,0.83
9985.00,0.83
9984.00,0.83
9983.00,0.83
9982.00,0.82
9981.00,0.82
9980.00,0.82
9979.00,0.82
9978.00,0.82
9977.00,0.82
9976.00,0.82
9975.00,0.82
9974.00,0.82
9973.00,0.82
9972.00,0.82
9971.00,0.82
9970.00,0.82
9969.00,0.82
9968.00,0.82
9967.00,0.82
9966.00,0.82
9965.00,0.82
9964.00,0.82
9963.00,0.82
9962.00,0.82
9961.00,0.82
9960.00,0.82
9959.00,0.82
9958.00,0.82
9957.00,0.82
9956.00,0.82
9955.00,0.82
9954.00,0.81
9953.00,0.81
9952.00,0.81
9951.00,0.81
9950.00,0.81
9949.00,0.81
9948.00,0.81
9947.00,0.81
9946.00,0.81
9945.00,0.81
9944.00,0.81
9943.00,0.81
9942.00,0.81
9941.00,0.81
9940.00,0.81
9939.00,0.81
9938.00,0.81
9937.00,0.81
9936.00,0.81
9935.00,0.81
9934.00,0.81
9933.00,0.81
9932.00,0.80
9931.00,0.80
9930.00,0.80
9929.00,0.80
9928.00,0.80
9927.00,0.80
9926.00,0.80
9925.00,0.80
9924.00,0.80
9923.00,0.80
9922.00,0.80
9921.00,0.80
9920.00,0.80
9919.00,0.80
9918.00,0.80
9917.00,0.80
9916.00,0.80
9915.00,0.80
9914.00,0.80
9913.00,0.80
9912.00,0.80
9911.00,0.80
9910.00,0.80
9909.00,0.80
9908.00,0.80
9907.00,0.80
9906.00,0.79
9905.00,0.79
9904.00,0.79
9903.00,0.79
9902.00,0.79
9901.00,0.79
9900.00,0.79
9899.00,0.79
9898.00,0.79
9897.00,0.78
9896.00,0.78
9895.00,0.78
9894.00,0.78
9893.00,0.78
9892.00,0.79
9891.00,0.79
9890.00,0.79
9889.00,0.79
9888.00,0.79
9887.00,0.79
9886.00,0.79
9885.00,0.79
9884.00,0.80
9883.00,0.80
9882.00,0.80
9881.00,0.80
9880.00,0.80
9879.00,0.80
9878.00,0.80
9877.00,0.80
9876.00,0.80
9875.00,0.80
9874.00,0.80
9873.00,0.80
9872.00,0.80
9871.00,0.80
9870.00,0.80
9869.00,0.80
9868.00,0.80
9867.00,0.80
9866.00,0.80
9865.00,0.81
9864.00,0.81
9863.00,0.81
9862.00,0.82
9861.00,0.82
9860.00,0.82
9859.00,0.82
9858.00,0.83
9857.00,0.83
9856.00,0.83
9855.00,0.83
9854.00,0.83
9853.00,0.83
9852.00,0.83
9851.00,0.83
9850.00,0.83
9849.00,0.83
9848.00,0.82
9847.00,0.82
9846.00,0.82
9845.00,0.81
9844.00,0.81
9843.00,0.81
9842.00,0.80
9841.00,0.80
9840.00,0.80
9839.00,0.80
9838.00,0.80
9837.00,0.80
9836.00,0.80
9835.00,0.80
9834.00,0.80
9833.00,0.80
9832.00,0.80
9831.00,0.80
9830.00,0.80
9829.00,0.80
9828.00,0.81
9827.00,0.81
9826.00,0.81
9825.00,0.81
9824.00,0.82
9823.00,0.82
9822.00,0.82
9821.00,0.82
9820.00,0.82
9819.00,0.82
9818.00,0.82
9817.00,0.82
9816.00,0.82
9815.00,0.82
9814.00,0.82
9813.00,0.81
9812.00,0.81
9811.00,0.81
9810.00,0.81
9809.00,0.80
9808.00,0.80
9807.00,0.80
9806.00,0.79
9805.00,0.79
9804.00,0.78
9803.00,0.78
9802.00,0.78
9801.00,0.78
9800.00,0.77
9799.00,0.77
9798.00,0.77
9797.00,0.77
9796.00,0.77
9795.00,0.77
9794.00,0.77
9793.00,0.78
9792.00,0.78
9791.00,0.78
9790.00,0.78
9789.00,0.79
9788.00,0.79
9787.00,0.80
9786.00,0.80
9785.00,0.80
9784.00,0.81
9783.00,0.81
9782.00,0.81
9781.00,0.82
9780.00,0.82
9779.00,0.82
9778.00,0.82
9777.00,0.82
9776.00,0.82
9775.00,0.82
9774.00,0.82
9773.00,0.82
9772.00,0.82
9771.00,0.82
9770.00,0.82
9769.00,0.81
9768.00,0.81
9767.00,0.81
9766.00,0.81
9765.00,0.81
9764.00,0.81
9763.00,0.81
9762.00,0.81
9761.00,0.80
9760.00,0.80
9759.00,0.80
9758.00,0.80
9757.00,0.80
9756.00,0.80
9755.00,0.80
9754.00,0.80
9753.00,0.80
9752.00,0.80
9751.00,0.80
9750.00,0.80
9749.00,0.80
9748.00,0.80
9747.00,0.80
9746.00,0.80
9745.00,0.80
9744.00,0.80
9743.00,0.80
9742.00,0.79
9741.00,0.79
9740.00,0.79
9739.00,0.79
9738.00,0.79
9737.00,0.79
9736.00,0.78
9735.00,0.78
9734.00,0.78
9733.00,0.78
9732.00,0.78
9731.00,0.78
9730.00,0.78
9729.00,0.77
9728.00,0.77
9727.00,0.77
9726.00,0.77
9725.00,0.77
9724.00,0.77
9723.00,0.77
9722.00,0.77
9721.00,0.77
9720.00,0.77
9719.00,0.77
9718.00,0.77
9717.00,0.77
9716.00,0.77
9715.00,0.77
9714.00,0.77
9713.00,0.77
9712.00,0.77
9711.00,0.77
9710.00,0.77
9709.00,0.78
9708.00,0.78
9707.00,0.78
9706.00,0.78
9705.00,0.78
9704.00,0.78
9703.00,0.79
9702.00,0.79
9701.00,0.79
9700.00,0.79
9699.00,0.79
9698.00,0.79
9697.00,0.80
9696.00,0.80
9695.00,0.80
9694.00,0.80
9693.00,0.80
9692.00,0.80
9691.00,0.81
9690.00,0.81
9689.00,0.81
9688.00,0.81
9687.00,0.81
9686.00,0.81
9685.00,0.81
9684.00,0.81
9683.00,0.81
9682.00,0.81
9681.00,0.81
9680.00,0.81
9679.00,0.81
9678.00,0.81
9677.00,0.81
9676.00,0.81
9675.00,0.81
9674.00,0.81
9673.00,0.81
9672.00,0.81
9671.00,0.80
9670.00,0.80
9669.00,0.80
9668.00,0.80
9667.00,0.80
9666.00,0.80
9665.00,0.80
9664.00,0.80
9663.00,0.80
9662.00,0.80
9661.00,0.80
9660.00,0.80
9659.00,0.80
9658.00,0.80
9657.00,0.80
9656.00,0.80
9655.00,0.80
9654.00,0.80
9653.00,0.80
9652.00,0.80
9651.00,0.80
9650.00,0.80
9649.00,0.80
9648.00,0.80
9647.00,0.80
9646.00,0.80
9645.00,0.80
9644.00,0.80
9643.00,0.80
9642.00,0.80
9641.00,0.81
9640.00,0.81
9639.00,0.81
9638.00,0.81
9637.00,0.81
9636.00,0.81
9635.00,0.81
9634.00,0.81
9633.00,0.81
9632.00,0.81
9631.00,0.81
9630.00,0.81
9629.00,0.81
9628.00,0.80
9627.00,0.80
9626.00,0.80
9625.00,0.80
9624.00,0.80
9623.00,0.80
9622.00,0.80
9621.00,0.80
9620.00,0.80
9619.00,0.80
9618.00,0.80
9617.00,0.80
9616.00,0.80
9615.00,0.80
9614.00,0.80
9613.00,0.80
9612.00,0.80
9611.00,0.80
9610.00,0.80
9609.00,0.80
9608.00,0.80
9607.00,0.80
9606.00,0.81
9605.00,0.81
9604.00,0.81
9603.00,0.81
9602.00,0.81
9601.00,0.81
9600.00,0.81
9599.00,0.81
9598.00,0.81
9597.00,0.81
9596.00,0.81
9595.00,0.80
9594.00,0.80
9593.00,0.80
9592.00,0.80
9591.00,0.80
9590.00,0.80
9589.00,0.79
9588.00,0.79
9587.00,0.79
9586.00,0.79
9585.00,0.79
9584.00,0.79
9583.00,0.79
9582.00,0.79
9581.00,0.80
9580.00,0.80
9579.00,0.80
9578.00,0.80
9577.00,0.80
9576.00,0.80
9575.00,0.80
9574.00,0.80
9573.00,0.80
9572.00,0.79
9571.00,0.79
9570.00,0.79
9569.00,0.79
9568.00,0.79
9567.00,0.79
9566.00,0.79
9565.00,0.79
9564.00,0.79
9563.00,0.79
9562.00,0.79
9561.00,0.79
9560.00,0.79
9559.00,0.79
9558.00,0.79
9557.00,0.79
9556.00,0.79
9555.00,0.79
9554.00,0.79
9553.00,0.79
9552.00,0.79
9551.00,0.79
9550.00,0.79
9549.00,0.79
9548.00,0.79
9547.00,0.79
9546.00,0.79
9545.00,0.79
9544.00,0.79
9543.00,0.79
9542.00,0.79
9541.00,0.79
9540.00,0.79
9539.00,0.79
9538.00,0.79
9537.00,0.79
9536.00,0.79
9535.00,0.79
9534.00,0.79
9533.00,0.79
9532.00,0.79
9531.00,0.79
9530.00,0.79
9529.00,0.79
9528.00,0.79
9527.00,0.79
9526.00,0.79
9525.00,0.79
9524.00,0.79
9523.00,0.79
9522.00,0.78
9521.00,0.78
9520.00,0.78
9519.00,0.78
9518.00,0.78
9517.00,0.78
9516.00,0.78
9515.00,0.78
9514.00,0.78
9513.00,0.79
9512.00,0.79
9511.00,0.79
9510.00,0.79
9509.00,0.79
9508.00,0.80
9507.00,0.80
9506.00,0.80
9505.00,0.80
9504.00,0.80
9503.00,0.80
9502.00,0.81
9501.00,0.81
9500.00,0.81
9499.00,0.81
9498.00,0.81
9497.00,0.81
9496.00,0.80
9495.00,0.80
9494.00,0.80
9493.00,0.80
9492.00,0.80
9491.00,0.80
9490.00,0.80
9489.00,0.80
9488.00,0.80
9487.00,0.80
9486.00,0.80
9485.00,0.80
9484.00,0.80
9483.00,0.80
9482.00,0.80
9481.00,0.80
9480.00,0.80
9479.00,0.80
9478.00,0.80
9477.00,0.80
9476.00,0.80
9475.00,0.80
9474.00,0.80
9473.00,0.80
9472.00,0.80
9471.00,0.80
9470.00,0.80
9469.00,0.80
9468.00,0.80
9467.00,0.80
9466.00,0.80
9465.00,0.80
9464.00,0.80
9463.00,0.80
9462.00,0.80
9461.00,0.80
9460.00,0.80
9459.00,0.80
9458.00,0.80
9457.00,0.80
9456.00,0.80
9455.00,0.80
9454.00,0.80
9453.00,0.79
9452.00,0.79
9451.00,0.79
9450.00,0.79
9449.00,0.79
9448.00,0.79
9447.00,0.79
9446.00,0.79
9445.00,0.79
9444.00,0.79
9443.00,0.79
9442.00,0.79
9441.00,0.79
9440.00,0.79
9439.00,0.79
9438.00,0.79
9437.00,0.79
9436.00,0.79
9435.00,0.79
9434.00,0.79
9433.00,0.79
9432.00,0.79
9431.00,0.79
9430.00,0.79
9429.00,0.79
9428.00,0.79
9427.00,0.79
9426.00,0.80
9425.00,0.80
9424.00,0.80
9423.00,0.80
9422.00,0.80
9421.00,0.80
9420.00,0.80
9419.00,0.80
9418.00,0.80
9417.00,0.81
9416.00,0.81
9415.00,0.81
9414.00,0.81
9413.00,0.81
9412.00,0.81
9411.00,0.81
9410.00,0.81
9409.00,0.81
9408.00,0.81
9407.00,0.81
9406.00,0.81
9405.00,0.81
9404.00,0.81
9403.00,0.81
9402.00,0.81
9401.00,0.81
9400.00,0.81
9399.00,0.81
9398.00,0.81
9397.00,0.81
9396.00,0.81
9395.00,0.81
9394.00,0.81
9393.00,0.81
9392.00,0.81
9391.00,0.81
9390.00,0.81
9389.00,0.81
9388.00,0.81
9387.00,0.81
9386.00,0.80
9385.00,0.80
9384.00,0.80
9383.00,0.80
9382.00,0.80
9381.00,0.80
9380.00,0.79
9379.00,0.79
9378.00,0.79
9377.00,0.79
9376.00,0.79
9375.00,0.79
9374.00,0.78
9373.00,0.78
9372.00,0.78
9371.00,0.78
9370.00,0.78
9369.00,0.78
9368.00,0.78
9367.00,0.78
9366.00,0.78
9365.00,0.78
9364.00,0.78
9363.00,0.78
9362.00,0.78
9361.00,0.78
9360.00,0.78
9359.00,0.78
9358.00,0.78
9357.00,0.78
9356.00,0.78
9355.00,0.78
9354.00,0.78
9353.00,0.78
9352.00,0.78
9351.00,0.78
9350.00,0.78
9349.00,0.78
9348.00,0.78
9347.00,0.78
9346.00,0.78
9345.00,0.78
9344.00,0.78
9343.00,0.78
9342.00,0.78
9341.00,0.78
9340.00,0.78
9339.00,0.78
9338.00,0.78
9337.00,0.78
9336.00,0.78
9335.00,0.78
9334.00,0.78
9333.00,0.78
9332.00,0.78
9331.00,0.78
9330.00,0.78
9329.00,0.78
9328.00,0.79
9327.00,0.79
9326.00,0.79
9325.00,0.79
9324.00,0.79
9323.00,0.80
9322.00,0.80
9321.00,0.80
9320.00,0.80
9319.00,0.81
9318.00,0.81
9317.00,0.81
9316.00,0.81
9315.00,0.81
9314.00,0.81
9313.00,0.81
9312.00,0.81
9311.00,0.81
9310.00,0.81
9309.00,0.81
9308.00,0.81
9307.00,0.80
9306.00,0.80
9305.00,0.80
9304.00,0.79
9303.00,0.79
9302.00,0.79
9301.00,0.79
9300.00,0.78
9299.00,0.78
9298.00,0.78
9297.00,0.78
9296.00,0.78
9295.00,0.78
9294.00,0.78
9293.00,0.78
9292.00,0.78
9291.00,0.78
9290.00,0.78
9289.00,0.78
9288.00,0.79
9287.00,0.79
9286.00,0.79
9285.00,0.79
9284.00,0.79
9283.00,0.79
9282.00,0.79
9281.00,0.79
9280.00,0.79
9279.00,0.79
9278.00,0.79
9277.00,0.80
9276.00,0.80
9275.00,0.80
9274.00,0.80
9273.00,0.80
9272.00,0.80
9271.00,0.80
9270.00,0.80
9269.00,0.80
9268.00,0.80
9267.00,0.80
9266.00,0.80
9265.00,0.80
9264.00,0.80
9263.00,0.80
9262.00,0.80
9261.00,0.80
9260.00,0.80
9259.00,0.80
9258.00,0.80
9257.00,0.80
9256.00,0.80
9255.00,0.80
9254.00,0.80
9253.00,0.80
9252.00,0.80
9251.00,0.80
9250.00,0.80
9249.00,0.80
9248.00,0.80
9247.00,0.80
9246.00,0.79
9245.00,0.79
9244.00,0.79
9243.00,0.79
9242.00,0.79
9241.00,0.79
9240.00,0.79
9239.00,0.79
9238.00,0.78
9237.00,0.78
9236.00,0.78
9235.00,0.78
9234.00,0.78
9233.00,0.78
9232.00,0.79
9231.00,0.79
9230.00,0.79
9229.00,0.79
9228.00,0.79
9227.00,0.79
9226.00,0.79
9225.00,0.79
9224.00,0.80
9223.00,0.80
9222.00,0.80
9221.00,0.80
9220.00,0.80
9219.00,0.80
9218.00,0.80
9217.00,0.81
9216.00,0.81
9215.00,0.81
9214.00,0.81
9213.00,0.81
9212.00,0.81
9211.00,0.82
9210.00,0.82
9209.00,0.82
9208.00,0.82
9207.00,0.82
9206.00,0.83
9205.00,0.83
9204.00,0.83
9203.00,0.83
9202.00,0.83
9201.00,0.83
9200.00,0.83
9199.00,0.83
9198.00,0.83
9197.00,0.83
9196.00,0.83
9195.00,0.83
9194.00,0.83
9193.00,0.83
9192.00,0.83
9191.00,0.83
9190.00,0.83
9189.00,0.82
9188.00,0.82
9187.00,0.82
9186.00,0.82
9185.00,0.82
9184.00,0.81
9183.00,0.81
9182.00,0.81
9181.00,0.81
9180.00,0.81
9179.00,0.81
9178.00,0.81
9177.00,0.80
9176.00,0.80
9175.00,0.80
9174.00,0.80
9173.00,0.80
9172.00,0.80
9171.00,0.80
9170.00,0.80
9169.00,0.80
9168.00,0.80
9167.00,0.80
9166.00,0.80
9165.00,0.80
9164.00,0.80
9163.00,0.80
9162.00,0.80
9161.00,0.80
9160.00,0.80
9159.00,0.80
9158.00,0.80
9157.00,0.80
9156.00,0.80
9155.00,0.80
9154.00,0.80
9153.00,0.80
9152.00,0.80
9151.00,0.80
9150.00,0.80
9149.00,0.80
9148.00,0.80
9147.00,0.80
9146.00,0.79
9145.00,0.79
9144.00,0.79
9143.00,0.79
9142.00,0.79
9141.00,0.79
9140.00,0.79
9139.00,0.78
9138.00,0.78
9137.00,0.78
9136.00,0.78
9135.00,0.78
9134.00,0.78
9133.00,0.78
9132.00,0.78
9131.00,0.78
9130.00,0.78
9129.00,0.78
9128.00,0.78
9127.00,0.78
9126.00,0.78
9125.00,0.79
9124.00,0.79
9123.00,0.79
9122.00,0.79
9121.00,0.79
9120.00,0.79
9119.00,0.80
9118.00,0.80
9117.00,0.80
9116.00,0.80
9115.00,0.80
9114.00,0.80
9113.00,0.80
9112.00,0.80
9111.00,0.80
9110.00,0.80
9109.00,0.80
9108.00,0.80
9107.00,0.80
9106.00,0.80
9105.00,0.80
9104.00,0.80
9103.00,0.80
9102.00,0.80
9101.00,0.80
9100.00,0.80
9099.00,0.80
9098.00,0.80
9097.00,0.80
9096.00,0.80
9095.00,0.80
9094.00,0.80
9093.00,0.80
9092.00,0.80
9091.00,0.80
9090.00,0.80
9089.00,0.80
9088.00,0.80
9087.00,0.80
9086.00,0.79
9085.00,0.79
9084.00,0.79
9083.00,0.79
9082.00,0.79
9081.00,0.79
9080.00,0.79
9079.00,0.79
9078.00,0.79
9077.00,0.78
9076.00,0.79
9075.00,0.79
9074.00,0.79
9073.00,0.79
9072.00,0.79
9071.00,0.79
9070.00,0.79
9069.00,0.79
9068.00,0.79
9067.00,0.79
9066.00,0.79
9065.00,0.79
9064.00,0.79
9063.00,0.79
9062.00,0.79
9061.00,0.79
9060.00,0.79
9059.00,0.79
9058.00,0.79
9057.00,0.79
9056.00,0.79
9055.00,0.80
9054.00,0.80
9053.00,0.80
9052.00,0.80
9051.00,0.80
9050.00,0.80
9049.00,0.80
9048.00,0.80
9047.00,0.80
9046.00,0.80
9045.00,0.80
9044.00,0.81
9043.00,0.81
9042.00,0.81
9041.00,0.81
9040.00,0.81
9039.00,0.81
9038.00,0.81
9037.00,0.81
9036.00,0.81
9035.00,0.81
9034.00,0.81
9033.00,0.82
9032.00,0.82
9031.00,0.82
9030.00,0.82
9029.00,0.82
9028.00,0.82
9027.00,0.82
9026.00,0.82
9025.00,0.82
9024.00,0.82
9023.00,0.82
9022.00,0.82
9021.00,0.82
9020.00,0.82
9019.00,0.82
9018.00,0.82
9017.00,0.82
9016.00,0.82
9015.00,0.82
9014.00,0.82
9013.00,0.82
9012.00,0.82
9011.00,0.82
9010.00,0.82
9009.00,0.82
9008.00,0.82
9007.00,0.82
9006.00,0.82
9005.00,0.82
9004.00,0.82
9003.00,0.82
9002.00,0.82
9001.00,0.82
9000.00,0.82
8999.00,0.82
8998.00,0.82
8997.00,0.82
8996.00,0.82
8995.00,0.82
8994.00,0.82
8993.00,0.82
8992.00,0.82
8991.00,0.82
8990.00,0.82
8989.00,0.82
8988.00,0.82
8987.00,0.82
8986.00,0.82
8985.00,0.82
8984.00,0.82
8983.00,0.82
8982.00,0.82
8981.00,0.82
8980.00,0.82
8979.00,0.82
8978.00,0.82
8977.00,0.82
8976.00,0.82
8975.00,0.82
8974.00,0.81
8973.00,0.81
8972.00,0.81
8971.00,0.81
8970.00,0.81
8969.00,0.81
8968.00,0.81
8967.00,0.81
8966.00,0.81
8965.00,0.81
8964.00,0.81
8963.00,0.81
8962.00,0.81
8961.00,0.81
8960.00,0.81
8959.00,0.81
8958.00,0.80
8957.00,0.80
8956.00,0.80
8955.00,0.80
8954.00,0.80
8953.00,0.80
8952.00,0.80
8951.00,0.80
8950.00,0.80
8949.00,0.80
8948.00,0.80
8947.00,0.80
8946.00,0.80
8945.00,0.80
8944.00,0.80
8943.00,0.80
8942.00,0.80
8941.00,0.80
8940.00,0.80
8939.00,0.80
8938.00,0.80
8937.00,0.80
8936.00,0.80
8935.00,0.80
8934.00,0.80
8933.00,0.79
8932.00,0.79
8931.00,0.79
8930.00,0.79
8929.00,0.79
8928.00,0.79
8927.00,0.79
8926.00,0.78
8925.00,0.78
8924.00,0.78
8923.00,0.78
8922.00,0.78
8921.00,0.78
8920.00,0.78
8919.00,0.78
8918.00,0.78
8917.00,0.79
8916.00,0.79
8915.00,0.79
8914.00,0.79
8913.00,0.80
8912.00,0.80
8911.00,0.80
8910.00,0.80
8909.00,0.80
8908.00,0.81
8907.00,0.81
8906.00,0.81
8905.00,0.81
8904.00,0.81
8903.00,0.81
8902.00,0.81
8901.00,0.81
8900.00,0.81
8899.00,0.81
8898.00,0.81
8897.00,0.81
8896.00,0.81
8895.00,0.81
8894.00,0.81
8893.00,0.81
8892.00,0.81
8891.00,0.81
8890.00,0.81
8889.00,0.82
8888.00,0.82
8887.00,0.82
8886.00,0.82
8885.00,0.82
8884.00,0.82
8883.00,0.82
8882.00,0.82
8881.00,0.82
8880.00,0.82
8879.00,0.82
8878.00,0.82
8877.00,0.82
8876.00,0.82
8875.00,0.82
8874.00,0.82
8873.00,0.82
8872.00,0.82
8871.00,0.82
8870.00,0.82
8869.00,0.82
8868.00,0.82
8867.00,0.82
8866.00,0.82
8865.00,0.81
8864.00,0.81
8863.00,0.81
8862.00,0.81
8861.00,0.81
8860.00,0.81
8859.00,0.81
8858.00,0.81
8857.00,0.81
8856.00,0.81
8855.00,0.81
8854.00,0.81
8853.00,0.81
8852.00,0.81
8851.00,0.81
8850.00,0.81
8849.00,0.81
8848.00,0.80
8847.00,0.80
8846.00,0.80
8845.00,0.80
8844.00,0.80
8843.00,0.80
8842.00,0.80
8841.00,0.80
8840.00,0.79
8839.00,0.79
8838.00,0.79
8837.00,0.79
8836.00,0.79
8835.00,0.79
8834.00,0.79
8833.00,0.79
8832.00,0.79
8831.00,0.80
8830.00,0.80
8829.00,0.80
8828.00,0.80
8827.00,0.80
8826.00,0.80
8825.00,0.80
8824.00,0.80
8823.00,0.80
8822.00,0.80
8821.00,0.80
8820.00,0.80
8819.00,0.80
8818.00,0.80
8817.00,0.80
8816.00,0.80
8815.00,0.80
8814.00,0.80
8813.00,0.80
8812.00,0.79
8811.00,0.79
8810.00,0.79
8809.00,0.79
8808.00,0.79
8807.00,0.79
8806.00,0.79
8805.00,0.79
8804.00,0.79
8803.00,0.79
8802.00,0.79
8801.00,0.79
8800.00,0.79
8799.00,0.79
8798.00,0.79
8797.00,0.79
8796.00,0.79
8795.00,0.79
8794.00,0.79
8793.00,0.79
8792.00,0.79
8791.00,0.79
8790.00,0.79
8789.00,0.79
8788.00,0.79
8787.00,0.79
8786.00,0.79
8785.00,0.79
8784.00,0.79
8783.00,0.79
8782.00,0.79
8781.00,0.79
8780.00,0.79
8779.00,0.79
8778.00,0.79
8777.00,0.78
8776.00,0.78
8775.00,0.78
8774.00,0.78
8773.00,0.78
8772.00,0.78
8771.00,0.78
8770.00,0.78
8769.00,0.78
8768.00,0.78
8767.00,0.78
8766.00,0.78
8765.00,0.78
8764.00,0.78
8763.00,0.78
8762.00,0.78
8761.00,0.78
8760.00,0.78
8759.00,0.78
8758.00,0.78
8757.00,0.78
8756.00,0.78
8755.00,0.78
8754.00,0.79
8753.00,0.79
8752.00,0.79
8751.00,0.79
8750.00,0.79
8749.00,0.79
8748.00,0.79
8747.00,0.79
8746.00,0.79
8745.00,0.79
8744.00,0.79
8743.00,0.79
8742.00,0.79
8741.00,0.79
8740.00,0.79
8739.00,0.78
8738.00,0.78
8737.00,0.78
8736.00,0.78
8735.00,0.78
8734.00,0.78
8733.00,0.78
8732.00,0.78
8731.00,0.78
8730.00,0.78
8729.00,0.78
8728.00,0.78
8727.00,0.78
8726.00,0.78
8725.00,0.78
8724.00,0.78
8723.00,0.78
8722.00,0.78
8721.00,0.78
8720.00,0.78
8719.00,0.78
8718.00,0.78
8717.00,0.78
8716.00,0.78
8715.00,0.78
8714.00,0.78
8713.00,0.78
8712.00,0.78
8711.00,0.78
8710.00,0.78
8709.00,0.78
8708.00,0.78
8707.00,0.78
8706.00,0.78
8705.00,0.78
8704.00,0.78
8703.00,0.78
8702.00,0.78
8701.00,0.78
8700.00,0.78
8699.00,0.78
8698.00,0.78
8697.00,0.78
8696.00,0.78
8695.00,0.78
8694.00,0.78
8693.00,0.78
8692.00,0.78
8691.00,0.78
8690.00,0.78
8689.00,0.78
8688.00,0.78
8687.00,0.78
8686.00,0.78
8685.00,0.78
8684.00,0.78
8683.00,0.78
8682.00,0.78
8681.00,0.78
8680.00,0.79
8679.00,0.79
8678.00,0.79
8677.00,0.79
8676.00,0.79
8675.00,0.79
8674.00,0.79
8673.00,0.79
8672.00,0.78
8671.00,0.78
8670.00,0.78
8669.00,0.78
8668.00,0.78
8667.00,0.78
8666.00,0.78
8665.00,0.78
8664.00,0.78
8663.00,0.78
8662.00,0.78
8661.00,0.78
8660.00,0.78
8659.00,0.78
8658.00,0.78
8657.00,0.78
8656.00,0.78
8655.00,0.78
8654.00,0.78
8653.00,0.78
8652.00,0.78
8651.00,0.78
8650.00,0.78
8649.00,0.78
8648.00,0.78
8647.00,0.78
8646.00,0.78
8645.00,0.78
8644.00,0.78
8643.00,0.78
8642.00,0.78
8641.00,0.78
8640.00,0.78
8639.00,0.78
8638.00,0.78
8637.00,0.78
8636.00,0.78
8635.00,0.78
8634.00,0.78
8633.00,0.78
8632.00,0.78
8631.00,0.78
8630.00,0.78
8629.00,0.78
8628.00,0.78
8627.00,0.78
8626.00,0.78
8625.00,0.78
8624.00,0.78
8623.00,0.78
8622.00,0.78
8621.00,0.78
8620.00,0.78
8619.00,0.78
8618.00,0.78
8617.00,0.78
8616.00,0.78
8615.00,0.78
8614.00,0.77
8613.00,0.77
8612.00,0.77
8611.00,0.77
8610.00,0.77
8609.00,0.77
8608.00,0.77
8607.00,0.77
8606.00,0.77
8605.00,0.77
8604.00,0.77
8603.00,0.77
8602.00,0.77
8601.00,0.77
8600.00,0.77
8599.00,0.77
8598.00,0.77
8597.00,0.78
8596.00,0.78
8595.00,0.78
8594.00,0.78
8593.00,0.78
8592.00,0.78
8591.00,0.78
8590.00,0.78
8589.00,0.78
8588.00,0.78
8587.00,0.78
8586.00,0.78
8585.00,0.78
8584.00,0.77
8583.00,0.77
8582.00,0.77
8581.00,0.77
8580.00,0.77
8579.00,0.77
8578.00,0.77
8577.00,0.77
8576.00,0.77
8575.00,0.77
8574.00,0.77
8573.00,0.77
8572.00,0.77
8571.00,0.77
8570.00,0.77
8569.00,0.77
8568.00,0.77
8567.00,0.77
8566.00,0.77
8565.00,0.77
8564.00,0.77
8563.00,0.77
8562.00,0.77
8561.00,0.77
8560.00,0.77
8559.00,0.77
8558.00,0.77
8557.00,0.77
8556.00,0.77
8555.00,0.77
8554.00,0.77
8553.00,0.77
8552.00,0.77
8551.00,0.77
8550.00,0.77
8549.00,0.77
8548.00,0.77
8547.00,0.77
8546.00,0.77
8545.00,0.77
8544.00,0.77
8543.00,0.77
8542.00,0.77
8541.00,0.77
8540.00,0.77
8539.00,0.77
8538.00,0.77
8537.00,0.77
8536.00,0.77
8535.00,0.77
8534.00,0.77
8533.00,0.76
8532.00,0.76
8531.00,0.76
8530.00,0.76
8529.00,0.76
8528.00,0.76
8527.00,0.76
8526.00,0.76
8525.00,0.76
8524.00,0.76
8523.00,0.76
8522.00,0.76
8521.00,0.76
8520.00,0.76
8519.00,0.76
8518.00,0.76
8517.00,0.76
8516.00,0.76
8515.00,0.76
8514.00,0.76
8513.00,0.76
8512.00,0.76
8511.00,0.76
8510.00,0.76
8509.00,0.76
8508.00,0.76
8507.00,0.76
8506.00,0.76
8505.00,0.76
8504.00,0.75
8503.00,0.75
8502.00,0.75
8501.00,0.75
8500.00,0.75
8499.00,0.75
8498.00,0.75
8497.00,0.75
8496.00,0.75
8495.00,0.75
8494.00,0.75
8493.00,0.74
8492.00,0.74
8491.00,0.74
8490.00,0.74
8489.00,0.74
8488.00,0.74
8487.00,0.74
8486.00,0.74
8485.00,0.74
8484.00,0.74
8483.00,0.74
8482.00,0.74
8481.00,0.74
8480.00,0.74
8479.00,0.74
8478.00,0.74
8477.00,0.74
8476.00,0.74
8475.00,0.74
8474.00,0.74
8473.00,0.74
8472.00,0.74
8471.00,0.74
8470.00,0.74
8469.00,0.74
8468.00,0.74
8467.00,0.74
8466.00,0.74
8465.00,0.74
8464.00,0.74
8463.00,0.74
8462.00,0.74
8461.00,0.74
8460.00,0.74
8459.00,0.74
8458.00,0.74
8457.00,0.74
8456.00,0.74
8455.00,0.74
8454.00,0.74
8453.00,0.74
8452.00,0.74
8451.00,0.74
8450.00,0.74
8449.00,0.74
8448.00,0.74
8447.00,0.74
8446.00,0.74
8445.00,0.74
8444.00,0.74
8443.00,0.74
8442.00,0.74
8441.00,0.74
8440.00,0.74
8439.00,0.74
8438.00,0.74
8437.00,0.74
8436.00,0.74
8435.00,0.74
8434.00,0.74
8433.00,0.74
8432.00,0.74
8431.00,0.74
8430.00,0.74
8429.00,0.74
8428.00,0.74
8427.00,0.74
8426.00,0.74
8425.00,0.74
8424.00,0.74
8423.00,0.74
8422.00,0.74
8421.00,0.74
8420.00,0.74
8419.00,0.74
8418.00,0.74
8417.00,0.74
8416.00,0.74
8415.00,0.74
8414.00,0.74
8413.00,0.74
8412.00,0.74
8411.00,0.74
8410.00,0.74
8409.00,0.74
8408.00,0.74
8407.00,0.74
8406.00,0.74
8405.00,0.74
8404.00,0.74
8403.00,0.74
8402.00,0.75
8401.00,0.75
8400.00,0.75
8399.00,0.75
8398.00,0.75
8397.00,0.75
8396.00,0.75
8395.00,0.75
8394.00,0.75
8393.00,0.75
8392.00,0.75
8391.00,0.75
8390.00,0.75
8389.00,0.75
8388.00,0.76
8387.00,0.76
8386.00,0.76
8385.00,0.76
8384.00,0.76
8383.00,0.76
8382.00,0.76
8381.00,0.76
8380.00,0.76
8379.00,0.76
8378.00,0.76
8377.00,0.76
8376.00,0.76
8375.00,0.76
8374.00,0.76
8373.00,0.76
8372.00,0.76
8371.00,0.76
8370.00,0.76
8369.00,0.76
8368.00,0.76
8367.00,0.76
8366.00,0.76
8365.00,0.76
8364.00,0.76
8363.00,0.76
8362.00,0.76
8361.00,0.76
8360.00,0.76
8359.00,0.76
8358.00,0.76
8357.00,0.76
8356.00,0.76
8355.00,0.76
8354.00,0.76
8353.00,0.76
8352.00,0.76
8351.00,0.76
8350.00,0.76
8349.00,0.76
8348.00,0.76
8347.00,0.76
8346.00,0.76
8345.00,0.76
8344.00,0.76
8343.00,0.76
8342.00,0.76
8341.00,0.77
8340.00,0.77
8339.00,0.77
8338.00,0.77
8337.00,0.77
8336.00,0.77
8335.00,0.77
8334.00,0.77
8333.00,0.77
8332.00,0.77
8331.00,0.77
8330.00,0.77
8329.00,0.76
8328.00,0.76
8327.00,0.76
8326.00,0.76
8325.00,0.76
8324.00,0.76
8323.00,0.75
8322.00,0.75
8321.00,0.75
8320.00,0.75
8319.00,0.75
8318.00,0.75
8317.00,0.75
8316.00,0.75
8315.00,0.76
8314.00,0.76
8313.00,0.76
8312.00,0.76
8311.00,0.76
8310.00,0.77
8309.00,0.77
8308.00,0.77
8307.00,0.77
8306.00,0.77
8305.00,0.77
8304.00,0.77
8303.00,0.77
8302.00,0.78
8301.00,0.78
8300.00,0.78
8299.00,0.78
8298.00,0.78
8297.00,0.77
8296.00,0.77
8295.00,0.77
8294.00,0.77
8293.00,0.77
8292.00,0.77
8291.00,0.77
8290.00,0.77
8289.00,0.77
8288.00,0.77
8287.00,0.77
8286.00,0.77
8285.00,0.77
8284.00,0.77
8283.00,0.77
8282.00,0.77
8281.00,0.77
8280.00,0.77
8279.00,0.77
8278.00,0.77
8277.00,0.77
8276.00,0.77
8275.00,0.77
8274.00,0.77
8273.00,0.77
8272.00,0.77
8271.00,0.77
8270.00,0.77
8269.00,0.77
8268.00,0.77
8267.00,0.77
8266.00,0.77
8265.00,0.77
8264.00,0.77
8263.00,0.78
8262.00,0.78
8261.00,0.78
8260.00,0.78
8259.00,0.78
8258.00,0.78
8257.00,0.78
8256.00,0.78
8255.00,0.78
8254.00,0.78
8253.00,0.78
8252.00,0.78
8251.00,0.78
8250.00,0.78
8249.00,0.78
8248.00,0.78
8247.00,0.78
8246.00,0.78
8245.00,0.78
8244.00,0.78
8243.00,0.78
8242.00,0.78
8241.00,0.78
8240.00,0.78
8239.00,0.78
8238.00,0.78
8237.00,0.78
8236.00,0.78
8235.00,0.78
8234.00,0.78
8233.00,0.78
8232.00,0.78
8231.00,0.78
8230.00,0.79
8229.00,0.79
8228.00,0.79
8227.00,0.79
8226.00,0.79
8225.00,0.79
8224.00,0.79
8223.00,0.79
8222.00,0.79
8221.00,0.79
8220.00,0.79
8219.00,0.79
8218.00,0.79
8217.00,0.79
8216.00,0.79
8215.00,0.79
8214.00,0.79
8213.00,0.79
8212.00,0.79
8211.00,0.79
8210.00,0.79
8209.00,0.79
8208.00,0.79
8207.00,0.79
8206.00,0.79
8205.00,0.79
8204.00,0.79
8203.00,0.78
8202.00,0.78
8201.00,0.78
8200.00,0.78
8199.00,0.78
8198.00,0.78
8197.00,0.78
8196.00,0.78
8195.00,0.78
8194.00,0.78
8193.00,0.78
8192.00,0.78
8191.00,0.78
8190.00,0.78
8189.00,0.78
8188.00,0.78
8187.00,0.78
8186.00,0.78
8185.00,0.78
8184.00,0.78
8183.00,0.79
8182.00,0.79
8181.00,0.79
8180.00,0.79
8179.00,0.79
8178.00,0.79
8177.00,0.79
8176.00,0.79
8175.00,0.79
8174.00,0.79
8173.00,0.79
8172.00,0.79
8171.00,0.79
8170.00,0.79
8169.00,0.79
8168.00,0.79
8167.00,0.79
8166.00,0.79
8165.00,0.79
8164.00,0.79
8163.00,0.79
8162.00,0.79
8161.00,0.79
8160.00,0.79
8159.00,0.80
8158.00,0.80
8157.00,0.80
8156.00,0.80
8155.00,0.80
8154.00,0.80
8153.00,0.80
8152.00,0.80
8151.00,0.79
8150.00,0.79
8149.00,0.79
8148.00,0.79
8147.00,0.79
8146.00,0.79
8145.00,0.79
8144.00,0.79
8143.00,0.79
8142.00,0.79
8141.00,0.79
8140.00,0.79
8139.00,0.79
8138.00,0.79
8137.00,0.79
8136.00,0.79
8135.00,0.79
8134.00,0.79
8133.00,0.79
8132.00,0.79
8131.00,0.79
8130.00,0.79
8129.00,0.79
8128.00,0.79
8127.00,0.79
8126.00,0.80
8125.00,0.80
8124.00,0.80
8123.00,0.80
8122.00,0.80
8121.00,0.80
8120.00,0.80
8119.00,0.80
8118.00,0.80
8117.00,0.80
8116.00,0.80
8115.00,0.80
8114.00,0.80
8113.00,0.80
8112.00,0.80
8111.00,0.80
8110.00,0.80
8109.00,0.80
8108.00,0.80
8107.00,0.80
8106.00,0.80
8105.00,0.79
8104.00,0.79
8103.00,0.79
8102.00,0.79
8101.00,0.79
8100.00,0.79
8099.00,0.79
8098.00,0.79
8097.00,0.79
8096.00,0.79
8095.00,0.80
8094.00,0.80
8093.00,0.80
8092.00,0.80
8091.00,0.80
8090.00,0.80
8089.00,0.80
8088.00,0.80
8087.00,0.80
8086.00,0.80
8085.00,0.80
8084.00,0.80
8083.00,0.80
8082.00,0.80
8081.00,0.80
8080.00,0.80
8079.00,0.80
8078.00,0.80
8077.00,0.80
8076.00,0.80
8075.00,0.80
8074.00,0.80
8073.00,0.80
8072.00,0.80
8071.00,0.80
8070.00,0.80
8069.00,0.80
8068.00,0.80
8067.00,0.80
8066.00,0.80
8065.00,0.80
8064.00,0.80
8063.00,0.80
8062.00,0.80
8061.00,0.80
8060.00,0.80
8059.00,0.80
8058.00,0.80
8057.00,0.80
8056.00,0.80
8055.00,0.80
8054.00,0.80
8053.00,0.80
8052.00,0.80
8051.00,0.80
8050.00,0.80
8049.00,0.80
8048.00,0.80
8047.00,0.80
8046.00,0.80
8045.00,0.80
8044.00,0.80
8043.00,0.80
8042.00,0.81
8041.00,0.81
8040.00,0.81
8039.00,0.81
8038.00,0.81
8037.00,0.81
8036.00,0.81
8035.00,0.81
8034.00,0.81
8033.00,0.81
8032.00,0.81
8031.00,0.81
8030.00,0.81
8029.00,0.81
8028.00,0.81
8027.00,0.81
8026.00,0.81
8025.00,0.81
8024.00,0.81
8023.00,0.81
8022.00,0.81
8021.00,0.80
8020.00,0.80
8019.00,0.80
8018.00,0.80
8017.00,0.80
8016.00,0.80
8015.00,0.80
8014.00,0.80
8013.00,0.80
8012.00,0.80
8011.00,0.80
8010.00,0.80
8009.00,0.80
8008.00,0.80
8007.00,0.80
8006.00,0.80
8005.00,0.80
8004.00,0.80
8003.00,0.80
8002.00,0.80
8001.00,0.80
8000.00,0.80
7999.00,0.80
7998.00,0.80
7997.00,0.80
7996.00,0.80
7995.00,0.81
7994.00,0.81
7993.00,0.81
7992.00,0.81
7991.00,0.81
7990.00,0.81
7989.00,0.81
7988.00,0.81
7987.00,0.81
7986.00,0.81
7985.00,0.81
7984.00,0.81
7983.00,0.81
7982.00,0.81
7981.00,0.81
7980.00,0.81
7979.00,0.81
7978.00,0.81
7977.00,0.81
7976.00,0.81
7975.00,0.81
7974.00,0.81
7973.00,0.81
7972.00,0.81
7971.00,0.81
7970.00,0.81
7969.00,0.81
7968.00,0.81
7967.00,0.81
7966.00,0.81
7965.00,0.81
7964.00,0.81
7963.00,0.81
7962.00,0.81
7961.00,0.81
7960.00,0.81
7959.00,0.81
7958.00,0.81
7957.00,0.81
7956.00,0.81
7955.00,0.81
7954.00,0.81
7953.00,0.81
7952.00,0.81
7951.00,0.81
7950.00,0.81
7949.00,0.81
7948.00,0.81
7947.00,0.81
7946.00,0.81
7945.00,0.81
7944.00,0.81
7943.00,0.81
7942.00,0.81
7941.00,0.81
7940.00,0.81
7939.00,0.81
7938.00,0.81
7937.00,0.81
7936.00,0.81
7935.00,0.82
7934.00,0.82
7933.00,0.82
7932.00,0.82
7931.00,0.82
7930.00,0.82
7929.00,0.82
7928.00,0.82
7927.00,0.82
7926.00,0.82
7925.00,0.82
7924.00,0.82
7923.00,0.83
7922.00,0.83
7921.00,0.83
7920.00,0.83
7919.00,0.83
7918.00,0.83
7917.00,0.83
7916.00,0.83
7915.00,0.83
7914.00,0.82
7913.00,0.82
7912.00,0.82
7911.00,0.82
7910.00,0.82
7909.00,0.82
7908.00,0.82
7907.00,0.82
7906.00,0.82
7905.00,0.82
7904.00,0.82
7903.00,0.82
7902.00,0.82
7901.00,0.82
7900.00,0.82
7899.00,0.82
7898.00,0.82
7897.00,0.82
7896.00,0.82
7895.00,0.82
7894.00,0.82
7893.00,0.82
7892.00,0.82
7891.00,0.82
7890.00,0.82
7889.00,0.82
7888.00,0.82
7887.00,0.82
7886.00,0.82
7885.00,0.82
7884.00,0.82
7883.00,0.82
7882.00,0.82
7881.00,0.82
7880.00,0.82
7879.00,0.82
7878.00,0.82
7877.00,0.82
7876.00,0.82
7875.00,0.83
7874.00,0.83
7873.00,0.82
7872.00,0.82
7871.00,0.82
7870.00,0.82
7869.00,0.82
7868.00,0.82
7867.00,0.82
7866.00,0.82
7865.00,0.82
7864.00,0.82
7863.00,0.82
7862.00,0.82
7861.00,0.83
7860.00,0.83
7859.00,0.83
7858.00,0.83
7857.00,0.83
7856.00,0.83
7855.00,0.83
7854.00,0.83
7853.00,0.83
7852.00,0.83
7851.00,0.83
7850.00,0.83
7849.00,0.83
7848.00,0.83
7847.00,0.83
7846.00,0.83
7845.00,0.83
7844.00,0.83
7843.00,0.83
7842.00,0.83
7841.00,0.83
7840.00,0.82
7839.00,0.82
7838.00,0.82
7837.00,0.82
7836.00,0.82
7835.00,0.82
7834.00,0.82
7833.00,0.82
7832.00,0.83
7831.00,0.83
7830.00,0.83
7829.00,0.83
7828.00,0.83
7827.00,0.83
7826.00,0.83
7825.00,0.83
7824.00,0.83
7823.00,0.83
7822.00,0.83
7821.00,0.83
7820.00,0.83
7819.00,0.83
7818.00,0.83
7817.00,0.83
7816.00,0.83
7815.00,0.83
7814.00,0.83
7813.00,0.83
7812.00,0.83
7811.00,0.83
7810.00,0.83
7809.00,0.83
7808.00,0.83
7807.00,0.83
7806.00,0.83
7805.00,0.83
7804.00,0.83
7803.00,0.83
7802.00,0.83
7801.00,0.83
7800.00,0.83
7799.00,0.83
7798.00,0.83
7797.00,0.83
7796.00,0.83
7795.00,0.83
7794.00,0.83
7793.00,0.83
7792.00,0.83
7791.00,0.83
7790.00,0.83
7789.00,0.83
7788.00,0.83
7787.00,0.83
7786.00,0.83
7785.00,0.83
7784.00,0.83
7783.00,0.83
7782.00,0.83
7781.00,0.83
7780.00,0.83
7779.00,0.83
7778.00,0.83
7777.00,0.83
7776.00,0.83
7775.00,0.83
7774.00,0.83
7773.00,0.83
7772.00,0.83
7771.00,0.83
7770.00,0.83
7769.00,0.83
7768.00,0.82
7767.00,0.82
7766.00,0.82
7765.00,0.82
7764.00,0.82
7763.00,0.83
7762.00,0.83
7761.00,0.83
7760.00,0.83
7759.00,0.83
7758.00,0.83
7757.00,0.83
7756.00,0.83
7755.00,0.83
7754.00,0.83
7753.00,0.83
7752.00,0.83
7751.00,0.83
7750.00,0.83
7749.00,0.83
7748.00,0.83
7747.00,0.83
7746.00,0.83
7745.00,0.83
7744.00,0.83
7743.00,0.83
7742.00,0.83
7741.00,0.83
7740.00,0.83
7739.00,0.83
7738.00,0.83
7737.00,0.83
7736.00,0.83
7735.00,0.83
7734.00,0.83
7733.00,0.83
7732.00,0.83
7731.00,0.83
7730.00,0.83
7729.00,0.83
7728.00,0.83
7727.00,0.83
7726.00,0.83
7725.00,0.84
7724.00,0.84
7723.00,0.84
7722.00,0.84
7721.00,0.84
7720.00,0.84
7719.00,0.84
7718.00,0.83
7717.00,0.83
7716.00,0.83
7715.00,0.83
7714.00,0.83
7713.00,0.83
7712.00,0.83
7711.00,0.83
7710.00,0.83
7709.00,0.83
7708.00,0.83
7707.00,0.83
7706.00,0.83
7705.00,0.83
7704.00,0.83
7703.00,0.83
7702.00,0.83
7701.00,0.83
7700.00,0.83
7699.00,0.83
7698.00,0.83
7697.00,0.83
7696.00,0.83
7695.00,0.83
7694.00,0.83
7693.00,0.83
7692.00,0.83
7691.00,0.83
7690.00,0.83
7689.00,0.83
7688.00,0.83
7687.00,0.83
7686.00,0.83
7685.00,0.83
7684.00,0.83
7683.00,0.83
7682.00,0.83
7681.00,0.83
7680.00,0.83
7679.00,0.83
7678.00,0.83
7677.00,0.83
7676.00,0.83
7675.00,0.83
7674.00,0.83
7673.00,0.83
7672.00,0.83
7671.00,0.83
7670.00,0.83
7669.00,0.83
7668.00,0.83
7667.00,0.83
7666.00,0.83
7665.00,0.83
7664.00,0.83
7663.00,0.83
7662.00,0.83
7661.00,0.83
7660.00,0.83
7659.00,0.83
7658.00,0.83
7657.00,0.83
7656.00,0.83
7655.00,0.83
7654.00,0.83
7653.00,0.83
7652.00,0.83
7651.00,0.83
7650.00,0.83
7649.00,0.83
7648.00,0.83
7647.00,0.83
7646.00,0.83
7645.00,0.83
7644.00,0.83
7643.00,0.83
7642.00,0.83
7641.00,0.83
7640.00,0.83
7639.00,0.83
7638.00,0.83
7637.00,0.83
7636.00,0.83
7635.00,0.83
7634.00,0.83
7633.00,0.83
7632.00,0.83
7631.00,0.83
7630.00,0.83
7629.00,0.83
7628.00,0.83
7627.00,0.83
7626.00,0.83
7625.00,0.83
7624.00,0.83
7623.00,0.83
7622.00,0.83
7621.00,0.83
7620.00,0.83
7619.00,0.83
7618.00,0.83
7617.00,0.83
7616.00,0.83
7615.00,0.83
7614.00,0.83
7613.00,0.83
7612.00,0.83
7611.00,0.83
7610.00,0.83
7609.00,0.83
7608.00,0.83
7607.00,0.83
7606.00,0.83
7605.00,0.83
7604.00,0.83
7603.00,0.83
7602.00,0.83
7601.00,0.83
7600.00,0.83
7599.00,0.83
7598.00,0.83
7597.00,0.83
7596.00,0.83
7595.00,0.83
7594.00,0.84
7593.00,0.84
7592.00,0.83
7591.00,0.83
7590.00,0.83
7589.00,0.83
7588.00,0.83
7587.00,0.83
7586.00,0.83
7585.00,0.83
7584.00,0.83
7583.00,0.83
7582.00,0.83
7581.00,0.83
7580.00,0.83
7579.00,0.83
7578.00,0.83
7577.00,0.83
7576.00,0.82
7575.00,0.82
7574.00,0.82
7573.00,0.82
7572.00,0.82
7571.00,0.82
7570.00,0.82
7569.00,0.82
7568.00,0.82
7567.00,0.82
7566.00,0.82
7565.00,0.82
7564.00,0.82
7563.00,0.82
7562.00,0.82
7561.00,0.82
7560.00,0.82
7559.00,0.82
7558.00,0.82
7557.00,0.82
7556.00,0.82
7555.00,0.82
7554.00,0.82
7553.00,0.82
7552.00,0.82
7551.00,0.82
7550.00,0.82
7549.00,0.82
7548.00,0.82
7547.00,0.82
7546.00,0.82
7545.00,0.82
7544.00,0.82
7543.00,0.82
7542.00,0.82
7541.00,0.82
7540.00,0.82
7539.00,0.82
7538.00,0.82
7537.00,0.82
7536.00,0.82
7535.00,0.82
7534.00,0.82
7533.00,0.82
7532.00,0.82
7531.00,0.82
7530.00,0.82
7529.00,0.82
7528.00,0.82
7527.00,0.81
7526.00,0.81
7525.00,0.81
7524.00,0.81
7523.00,0.81
7522.00,0.82
7521.00,0.82
7520.00,0.82
7519.00,0.82
7518.00,0.82
7517.00,0.82
7516.00,0.82
7515.00,0.82
7514.00,0.82
7513.00,0.82
7512.00,0.82
7511.00,0.82
7510.00,0.82
7509.00,0.82
7508.00,0.82
7507.00,0.82
7506.00,0.82
7505.00,0.82
7504.00,0.82
7503.00,0.82
7502.00,0.82
7501.00,0.82
7500.00,0.82
7499.00,0.82
7498.00,0.82
7497.00,0.82
7496.00,0.82
7495.00,0.82
7494.00,0.82
7493.00,0.82
7492.00,0.82
7491.00,0.81
7490.00,0.81
7489.00,0.81
7488.00,0.81
7487.00,0.81
7486.00,0.81
7485.00,0.81
7484.00,0.81
7483.00,0.81
7482.00,0.81
7481.00,0.81
7480.00,0.81
7479.00,0.81
7478.00,0.81
7477.00,0.81
7476.00,0.81
7475.00,0.81
7474.00,0.82
7473.00,0.82
7472.00,0.82
7471.00,0.82
7470.00,0.82
7469.00,0.82
7468.00,0.82
7467.00,0.82
7466.00,0.81
7465.00,0.81
7464.00,0.81
7463.00,0.81
7462.00,0.81
7461.00,0.81
7460.00,0.81
7459.00,0.81
7458.00,0.81
7457.00,0.81
7456.00,0.81
7455.00,0.81
7454.00,0.81
7453.00,0.81
7452.00,0.81
7451.00,0.81
7450.00,0.81
7449.00,0.81
7448.00,0.81
7447.00,0.81
7446.00,0.80
7445.00,0.80
7444.00,0.80
7443.00,0.80
7442.00,0.80
7441.00,0.80
7440.00,0.80
7439.00,0.80
7438.00,0.80
7437.00,0.80
7436.00,0.80
7435.00,0.80
7434.00,0.80
7433.00,0.80
7432.00,0.80
7431.00,0.80
7430.00,0.80
7429.00,0.80
7428.00,0.80
7427.00,0.80
7426.00,0.80
7425.00,0.80
7424.00,0.80
7423.00,0.80
7422.00,0.80
7421.00,0.80
7420.00,0.80
7419.00,0.80
7418.00,0.80
7417.00,0.80
7416.00,0.80
7415.00,0.80
7414.00,0.80
7413.00,0.80
7412.00,0.80
7411.00,0.80
7410.00,0.80
7409.00,0.80
7408.00,0.80
7407.00,0.79
7406.00,0.79
7405.00,0.79
7404.00,0.79
7403.00,0.79
7402.00,0.79
7401.00,0.79
7400.00,0.79
7399.00,0.79
7398.00,0.79
7397.00,0.79
7396.00,0.79
7395.00,0.78
7394.00,0.78
7393.00,0.78
7392.00,0.78
7391.00,0.78
7390.00,0.78
7389.00,0.78
7388.00,0.78
7387.00,0.78
7386.00,0.77
7385.00,0.77
7384.00,0.77
7383.00,0.77
7382.00,0.77
7381.00,0.77
7380.00,0.77
7379.00,0.77
7378.00,0.77
7377.00,0.77
7376.00,0.77
7375.00,0.77
7374.00,0.77
7373.00,0.77
7372.00,0.77
7371.00,0.77
7370.00,0.77
7369.00,0.77
7368.00,0.77
7367.00,0.77
7366.00,0.77
7365.00,0.77
7364.00,0.77
7363.00,0.77
7362.00,0.77
7361.00,0.77
7360.00,0.77
7359.00,0.77
7358.00,0.77
7357.00,0.77
7356.00,0.77
7355.00,0.77
7354.00,0.77
7353.00,0.77
7352.00,0.77
7351.00,0.77
7350.00,0.77
7349.00,0.77
7348.00,0.77
7347.00,0.77
7346.00,0.77
7345.00,0.77
7344.00,0.77
7343.00,0.77
7342.00,0.77
7341.00,0.77
7340.00,0.77
7339.00,0.77
7338.00,0.77
7337.00,0.77
7336.00,0.77
7335.00,0.77
7334.00,0.77
7333.00,0.77
7332.00,0.77
7331.00,0.77
7330.00,0.77
7329.00,0.77
7328.00,0.77
7327.00,0.77
7326.00,0.77
7325.00,0.77
7324.00,0.77
7323.00,0.77
7322.00,0.77
7321.00,0.77
7320.00,0.77
7319.00,0.77
7318.00,0.77
7317.00,0.77
7316.00,0.76
7315.00,0.76
7314.00,0.76
7313.00,0.76
7312.00,0.76
7311.00,0.76
7310.00,0.76
7309.00,0.76
7308.00,0.76
7307.00,0.76
7306.00,0.76
7305.00,0.76
7304.00,0.75
7303.00,0.75
7302.00,0.75
7301.00,0.75
7300.00,0.75
7299.00,0.75
7298.00,0.75
7297.00,0.75
7296.00,0.75
7295.00,0.75
7294.00,0.75
7293.00,0.75
7292.00,0.75
7291.00,0.75
7290.00,0.75
7289.00,0.75
7288.00,0.75
7287.00,0.75
7286.00,0.75
7285.00,0.75
7284.00,0.75
7283.00,0.75
7282.00,0.75
7281.00,0.75
7280.00,0.75
7279.00,0.75
7278.00,0.75
7277.00,0.75
7276.00,0.74
7275.00,0.74
7274.00,0.74
7273.00,0.74
7272.00,0.74
7271.00,0.74
7270.00,0.74
7269.00,0.74
7268.00,0.74
7267.00,0.74
7266.00,0.74
7265.00,0.74
7264.00,0.74
7263.00,0.74
7262.00,0.74
7261.00,0.73
7260.00,0.73
7259.00,0.73
7258.00,0.73
7257.00,0.73
7256.00,0.73
7255.00,0.73
7254.00,0.73
7253.00,0.73
7252.00,0.72
7251.00,0.72
7250.00,0.72
7249.00,0.72
7248.00,0.72
7247.00,0.72
7246.00,0.72
7245.00,0.72
7244.00,0.72
7243.00,0.71
7242.00,0.71
7241.00,0.71
7240.00,0.71
7239.00,0.71
7238.00,0.71
7237.00,0.71
7236.00,0.70
7235.00,0.70
7234.00,0.70
7233.00,0.70
7232.00,0.69
7231.00,0.69
7230.00,0.69
7229.00,0.69
7228.00,0.68
7227.00,0.68
7226.00,0.68
7225.00,0.68
7224.00,0.67
7223.00,0.67
7222.00,0.67
7221.00,0.67
7220.00,0.67
7219.00,0.66
7218.00,0.66
7217.00,0.66
7216.00,0.66
7215.00,0.66
7214.00,0.65
7213.00,0.65
7212.00,0.65
7211.00,0.65
7210.00,0.65
7209.00,0.64
7208.00,0.64
7207.00,0.64
7206.00,0.64
7205.00,0.64
7204.00,0.64
7203.00,0.63
7202.00,0.63
7201.00,0.63
7200.00,0.63
7199.00,0.63
7198.00,0.62
7197.00,0.62
7196.00,0.62
7195.00,0.62
7194.00,0.62
7193.00,0.61
7192.00,0.61
7191.00,0.61
7190.00,0.61
7189.00,0.61
7188.00,0.60
7187.00,0.60
7186.00,0.60
7185.00,0.60
7184.00,0.59
7183.00,0.59
7182.00,0.59
7181.00,0.59
7180.00,0.59
7179.00,0.59
7178.00,0.58
7177.00,0.58
7176.00,0.58
7175.00,0.58
7174.00,0.58
7173.00,0.57
7172.00,0.57
7171.00,0.57
7170.00,0.57
7169.00,0.57
7168.00,0.56
7167.00,0.56
7166.00,0.56
7165.00,0.56
7164.00,0.55
7163.00,0.55
7162.00,0.55
7161.00,0.55
7160.00,0.55
7159.00,0.54
7158.00,0.54
7157.00,0.54
7156.00,0.54
7155.00,0.54
7154.00,0.54
7153.00,0.54
7152.00,0.54
7151.00,0.53
7150.00,0.53
7149.00,0.53
7148.00,0.53
7147.00,0.53
7146.00,0.53
7145.00,0.53
7144.00,0.52
7143.00,0.52
7142.00,0.52
7141.00,0.52
7140.00,0.52
7139.00,0.51
7138.00,0.51
7137.00,0.51
7136.00,0.51
7135.00,0.51
7134.00,0.50
7133.00,0.50
7132.00,0.50
7131.00,0.50
7130.00,0.50
7129.00,0.50
7128.00,0.49
7127.00,0.49
7126.00,0.49
7125.00,0.49
7124.00,0.49
7123.00,0.49
7122.00,0.48
7121.00,0.48
7120.00,0.48
7119.00,0.48
7118.00,0.48
7117.00,0.48
7116.00,0.48
7115.00,0.48
7114.00,0.47
7113.00,0.47
7112.00,0.47
7111.00,0.47
7110.00,0.47
7109.00,0.47
7108.00,0.47
7107.00,0.46
7106.00,0.46
7105.00,0.46
7104.00,0.46
7103.00,0.46
7102.00,0.46
7101.00,0.45
7100.00,0.45
7099.00,0.45
7098.00,0.45
7097.00,0.45
7096.00,0.45
7095.00,0.44
7094.00,0.44
7093.00,0.44
7092.00,0.44
7091.00,0.44
7090.00,0.44
7089.00,0.44
7088.00,0.44
7087.00,0.43
7086.00,0.43
7085.00,0.43
7084.00,0.43
7083.00,0.43
7082.00,0.43
7081.00,0.43
7080.00,0.43
7079.00,0.43
7078.00,0.43
7077.00,0.43
7076.00,0.42
7075.00,0.42
7074.00,0.42
7073.00,0.42
7072.00,0.42
7071.00,0.42
7070.00,0.42
7069.00,0.42
7068.00,0.42
7067.00,0.42
7066.00,0.42
7065.00,0.42
7064.00,0.42
7063.00,0.41
7062.00,0.41
7061.00,0.41
7060.00,0.41
7059.00,0.41
7058.00,0.41
7057.00,0.41
7056.00,0.41
7055.00,0.41
7054.00,0.41
7053.00,0.41
7052.00,0.41
7051.00,0.40
7050.00,0.40
7049.00,0.40
7048.00,0.40
7047.00,0.40
7046.00,0.40
7045.00,0.40
7044.00,0.40
7043.00,0.39
7042.00,0.39
7041.00,0.39
7040.00,0.39
7039.00,0.39
7038.00,0.39
7037.00,0.39
7036.00,0.39
7035.00,0.39
7034.00,0.39
7033.00,0.39
7032.00,0.39
7031.00,0.39
7030.00,0.39
7029.00,0.39
7028.00,0.39
7027.00,0.39
7026.00,0.39
7025.00,0.39
7024.00,0.39
7023.00,0.39
7022.00,0.38
7021.00,0.38
7020.00,0.38
7019.00,0.38
7018.00,0.38
7017.00,0.38
7016.00,0.38
7015.00,0.38
7014.00,0.38
7013.00,0.38
7012.00,0.38
7011.00,0.38
7010.00,0.37
7009.00,0.37
7008.00,0.37
7007.00,0.37
7006.00,0.37
7005.00,0.37
7004.00,0.37
7003.00,0.37
7002.00,0.37
7001.00,0.37
7000.00,0.37
6999.00,0.37
6998.00,0.37
6997.00,0.37
6996.00,0.37
6995.00,0.37
6994.00,0.37
6993.00,0.37
6992.00,0.37
6991.00,0.37
6990.00,0.37
6989.00,0.36
6988.00,0.36
6987.00,0.36
6986.00,0.36
6985.00,0.36
6984.00,0.36
6983.00,0.36
6982.00,0.36
6981.00,0.36
6980.00,0.36
6979.00,0.36
6978.00,0.36
6977.00,0.36
6976.00,0.36
6975.00,0.36
6974.00,0.36
6973.00,0.36
6972.00,0.36
6971.00,0.36
6970.00,0.36
6969.00,0.36
6968.00,0.36
6967.00,0.36
6966.00,0.36
6965.00,0.36
6964.00,0.36
6963.00,0.36
6962.00,0.36
6961.00,0.35
6960.00,0.35
6959.00,0.35
6958.00,0.35
6957.00,0.35
6956.00,0.35
6955.00,0.35
6954.00,0.35
6953.00,0.35
6952.00,0.35
6951.00,0.35
6950.00,0.35
6949.00,0.35
6948.00,0.35
6947.00,0.35
6946.00,0.35
6945.00,0.35
6944.00,0.35
6943.00,0.35
6942.00,0.35
6941.00,0.35
6940.00,0.35
6939.00,0.35
6938.00,0.35
6937.00,0.35
6936.00,0.35
6935.00,0.35
6934.00,0.35
6933.00,0.35
6932.00,0.35
6931.00,0.35
6930.00,0.35
6929.00,0.35
6928.00,0.35
6927.00,0.35
6926.00,0.35
6925.00,0.35
6924.00,0.35
6923.00,0.35
6922.00,0.35
6921.00,0.35
6920.00,0.35
6919.00,0.35
6918.00,0.35
6917.00,0.35
6916.00,0.35
6915.00,0.35
6914.00,0.35
6913.00,0.35
6912.00,0.35
6911.00,0.35
6910.00,0.35
6909.00,0.35
6908.00,0.35
6907.00,0.35
6906.00,0.35
6905.00,0.35
6904.00,0.35
6903.00,0.35
6902.00,0.35
6901.00,0.35
6900.00,0.35
6899.00,0.35
6898.00,0.34
6897.00,0.34
6896.00,0.34
6895.00,0.34
6894.00,0.34
6893.00,0.34
6892.00,0.34
6891.00,0.34
6890.00,0.34
6889.00,0.34
6888.00,0.34
6887.00,0.34
6886.00,0.35
6885.00,0.35
6884.00,0.35
6883.00,0.35
6882.00,0.35
6881.00,0.35
6880.00,0.35
6879.00,0.35
6878.00,0.35
6877.00,0.35
6876.00,0.35
6875.00,0.35
6874.00,0.35
6873.00,0.35
6872.00,0.35
6871.00,0.35
6870.00,0.35
6869.00,0.35
6868.00,0.35
6867.00,0.35
6866.00,0.35
6865.00,0.35
6864.00,0.35
6863.00,0.35
6862.00,0.35
6861.00,0.35
6860.00,0.35
6859.00,0.35
6858.00,0.35
6857.00,0.35
6856.00,0.35
6855.00,0.35
6854.00,0.35
6853.00,0.35
6852.00,0.35
6851.00,0.35
6850.00,0.35
6849.00,0.35
6848.00,0.35
6847.00,0.35
6846.00,0.35
6845.00,0.35
6844.00,0.35
6843.00,0.35
6842.00,0.35
6841.00,0.35
6840.00,0.35
6839.00,0.35
6838.00,0.35
6837.00,0.35
6836.00,0.35
6835.00,0.35
6834.00,0.35
6833.00,0.35
6832.00,0.35
6831.00,0.35
6830.00,0.35
6829.00,0.35
6828.00,0.35
6827.00,0.35
6826.00,0.35
6825.00,0.35
6824.00,0.35
6823.00,0.35
6822.00,0.35
6821.00,0.35
6820.00,0.35
6819.00,0.35
6818.00,0.35
6817.00,0.36
6816.00,0.36
6815.00,0.36
6814.00,0.36
6813.00,0.36
6812.00,0.36
6811.00,0.36
6810.00,0.36
6809.00,0.36
6808.00,0.36
6807.00,0.36
6806.00,0.36
6805.00,0.36
6804.00,0.36
6803.00,0.36
6802.00,0.36
6801.00,0.36
6800.00,0.36
6799.00,0.36
6798.00,0.36
6797.00,0.36
6796.00,0.36
6795.00,0.36
6794.00,0.36
6793.00,0.36
6792.00,0.36
6791.00,0.36
6790.00,0.36
6789.00,0.36
6788.00,0.36
6787.00,0.36
6786.00,0.36
6785.00,0.36
6784.00,0.36
6783.00,0.37
6782.00,0.37
6781.00,0.37
6780.00,0.37
6779.00,0.37
6778.00,0.37
6777.00,0.37
6776.00,0.37
6775.00,0.37
6774.00,0.37
6773.00,0.37
6772.00,0.37
6771.00,0.37
6770.00,0.37
6769.00,0.37
6768.00,0.38
6767.00,0.38
6766.00,0.38
6765.00,0.38
6764.00,0.38
6763.00,0.38
6762.00,0.38
6761.00,0.38
6760.00,0.38
6759.00,0.38
6758.00,0.38
6757.00,0.38
6756.00,0.38
6755.00,0.38
6754.00,0.38
6753.00,0.38
6752.00,0.38
6751.00,0.38
6750.00,0.38
6749.00,0.38
6748.00,0.38
6747.00,0.38
6746.00,0.38
6745.00,0.38
6744.00,0.38
6743.00,0.38
6742.00,0.38
6741.00,0.38
6740.00,0.38
6739.00,0.39
6738.00,0.39
6737.00,0.39
6736.00,0.39
6735.00,0.39
6734.00,0.39
6733.00,0.39
6732.00,0.39
6731.00,0.39
6730.00,0.39
6729.00,0.39
6728.00,0.39
6727.00,0.39
6726.00,0.39
6725.00,0.39
6724.00,0.39
6723.00,0.39
6722.00,0.39
6721.00,0.39
6720.00,0.39
6719.00,0.39
6718.00,0.39
6717.00,0.39
6716.00,0.39
6715.00,0.39
6714.00,0.39
6713.00,0.40
6712.00,0.40
6711.00,0.40
6710.00,0.40
6709.00,0.40
6708.00,0.40
6707.00,0.40
6706.00,0.40
6705.00,0.40
6704.00,0.40
6703.00,0.40
6702.00,0.40
6701.00,0.41
6700.00,0.41
6699.00,0.41
6698.00,0.41
6697.00,0.41
6696.00,0.41
6695.00,0.41
6694.00,0.41
6693.00,0.41
6692.00,0.41
6691.00,0.41
6690.00,0.41
6689.00,0.41
6688.00,0.41
6687.00,0.41
6686.00,0.41
6685.00,0.42
6684.00,0.42
6683.00,0.42
6682.00,0.42
6681.00,0.42
6680.00,0.42
6679.00,0.42
6678.00,0.42
6677.00,0.42
6676.00,0.42
6675.00,0.42
6674.00,0.42
6673.00,0.42
6672.00,0.42
6671.00,0.42
6670.00,0.43
6669.00,0.43
6668.00,0.43
6667.00,0.43
6666.00,0.43
6665.00,0.43
6664.00,0.43
6663.00,0.43
6662.00,0.43
6661.00,0.43
6660.00,0.43
6659.00,0.43
6658.00,0.43
6657.00,0.43
6656.00,0.43
6655.00,0.43
6654.00,0.43
6653.00,0.43
6652.00,0.43
6651.00,0.43
6650.00,0.44
6649.00,0.44
6648.00,0.44
6647.00,0.44
6646.00,0.44
6645.00,0.44
6644.00,0.44
6643.00,0.44
6642.00,0.44
6641.00,0.44
6640.00,0.44
6639.00,0.44
6638.00,0.44
6637.00,0.44
6636.00,0.45
6635.00,0.45
6634.00,0.45
6633.00,0.45
6632.00,0.45
6631.00,0.45
6630.00,0.45
6629.00,0.45
6628.00,0.45
6627.00,0.45
6626.00,0.45
6625.00,0.45
6624.00,0.45
6623.00,0.45
6622.00,0.45
6621.00,0.45
6620.00,0.45
6619.00,0.45
6618.00,0.45
6617.00,0.46
6616.00,0.46
6615.00,0.46
6614.00,0.46
6613.00,0.46
6612.00,0.46
6611.00,0.46
6610.00,0.46
6609.00,0.46
6608.00,0.46
6607.00,0.46
6606.00,0.47
6605.00,0.47
6604.00,0.47
6603.00,0.47
6602.00,0.47
6601.00,0.47
6600.00,0.47
6599.00,0.47
6598.00,0.47
6597.00,0.47
6596.00,0.47
6595.00,0.47
6594.00,0.47
6593.00,0.47
6592.00,0.47
6591.00,0.47
6590.00,0.47
6589.00,0.47
6588.00,0.47
6587.00,0.48
6586.00,0.48
6585.00,0.48
6584.00,0.48
6583.00,0.48
6582.00,0.48
6581.00,0.48
6580.00,0.48
6579.00,0.48
6578.00,0.48
6577.00,0.48
6576.00,0.48
6575.00,0.48
6574.00,0.49
6573.00,0.49
6572.00,0.49
6571.00,0.49
6570.00,0.49
6569.00,0.49
6568.00,0.49
6567.00,0.49
6566.00,0.49
6565.00,0.49
6564.00,0.49
6563.00,0.49
6562.00,0.49
6561.00,0.49
6560.00,0.49
6559.00,0.49
6558.00,0.49
6557.00,0.49
6556.00,0.50
6555.00,0.50
6554.00,0.50
6553.00,0.50
6552.00,0.50
6551.00,0.50
6550.00,0.50
6549.00,0.50
6548.00,0.50
6547.00,0.50
6546.00,0.50
6545.00,0.50
6544.00,0.50
6543.00,0.50
6542.00,0.50
6541.00,0.50
6540.00,0.51
6539.00,0.51
6538.00,0.51
6537.00,0.51
6536.00,0.51
6535.00,0.51
6534.00,0.51
6533.00,0.51
6532.00,0.51
6531.00,0.51
6530.00,0.51
6529.00,0.51
6528.00,0.51
6527.00,0.51
6526.00,0.52
6525.00,0.52
6524.00,0.52
6523.00,0.52
6522.00,0.52
6521.00,0.52
6520.00,0.52
6519.00,0.52
6518.00,0.52
6517.00,0.52
6516.00,0.52
6515.00,0.52
6514.00,0.53
6513.00,0.53
6512.00,0.53
6511.00,0.53
6510.00,0.53
6509.00,0.53
6508.00,0.53
6507.00,0.53
6506.00,0.53
6505.00,0.53
6504.00,0.53
6503.00,0.53
6502.00,0.53
6501.00,0.53
6500.00,0.53
6499.00,0.53
6498.00,0.53
6497.00,0.54
6496.00,0.54
6495.00,0.54
6494.00,0.54
6493.00,0.54
6492.00,0.54
6491.00,0.54
6490.00,0.54
6489.00,0.54
6488.00,0.54
6487.00,0.54
6486.00,0.54
6485.00,0.54
6484.00,0.54
6483.00,0.54
6482.00,0.54
6481.00,0.54
6480.00,0.54
6479.00,0.54
6478.00,0.54
6477.00,0.54
6476.00,0.54
6475.00,0.54
6474.00,0.54
6473.00,0.54
6472.00,0.54
6471.00,0.55
6470.00,0.55
6469.00,0.55
6468.00,0.55
6467.00,0.55
6466.00,0.55
6465.00,0.55
6464.00,0.55
6463.00,0.55
6462.00,0.55
6461.00,0.55
6460.00,0.55
6459.00,0.55
6458.00,0.55
6457.00,0.55
6456.00,0.55
6455.00,0.56
6454.00,0.56
6453.00,0.56
6452.00,0.56
6451.00,0.56
6450.00,0.56
6449.00,0.56
6448.00,0.56
6447.00,0.56
6446.00,0.56
6445.00,0.56
6444.00,0.56
6443.00,0.56
6442.00,0.56
6441.00,0.56
6440.00,0.56
6439.00,0.56
6438.00,0.56
6437.00,0.56
6436.00,0.56
6435.00,0.56
6434.00,0.56
6433.00,0.56
6432.00,0.56
6431.00,0.57
6430.00,0.57
6429.00,0.57
6428.00,0.57
6427.00,0.57
6426.00,0.57
6425.00,0.57
6424.00,0.57
6423.00,0.57
6422.00,0.57
6421.00,0.57
6420.00,0.57
6419.00,0.57
6418.00,0.57
6417.00,0.57
6416.00,0.57
6415.00,0.57
6414.00,0.57
6413.00,0.57
6412.00,0.57
6411.00,0.57
6410.00,0.58
6409.00,0.58
6408.00,0.58
6407.00,0.58
6406.00,0.58
6405.00,0.58
6404.00,0.58
6403.00,0.58
6402.00,0.58
6401.00,0.58
6400.00,0.58
6399.00,0.58
6398.00,0.58
6397.00,0.58
6396.00,0.58
6395.00,0.58
6394.00,0.58
6393.00,0.59
6392.00,0.59
6391.00,0.59
6390.00,0.59
6389.00,0.59
6388.00,0.59
6387.00,0.59
6386.00,0.59
6385.00,0.59
6384.00,0.59
6383.00,0.59
6382.00,0.59
6381.00,0.59
6380.00,0.59
6379.00,0.59
6378.00,0.59
6377.00,0.59
6376.00,0.59
6375.00,0.59
6374.00,0.60
6373.00,0.60
6372.00,0.60
6371.00,0.60
6370.00,0.60
6369.00,0.60
6368.00,0.60
6367.00,0.60
6366.00,0.60
6365.00,0.60
6364.00,0.60
6363.00,0.60
6362.00,0.60
6361.00,0.60
6360.00,0.60
6359.00,0.60
6358.00,0.60
6357.00,0.60
6356.00,0.60
6355.00,0.60
6354.00,0.60
6353.00,0.61
6352.00,0.61
6351.00,0.61
6350.00,0.61
6349.00,0.61
6348.00,0.61
6347.00,0.61
6346.00,0.61
6345.00,0.61
6344.00,0.61
6343.00,0.61
6342.00,0.61
6341.00,0.61
6340.00,0.61
6339.00,0.61
6338.00,0.62
6337.00,0.62
6336.00,0.62
6335.00,0.62
6334.00,0.62
6333.00,0.62
6332.00,0.62
6331.00,0.62
6330.00,0.62
6329.00,0.62
6328.00,0.62
6327.00,0.62
6326.00,0.62
6325.00,0.62
6324.00,0.62
6323.00,0.63
6322.00,0.63
6321.00,0.63
6320.00,0.63
6319.00,0.63
6318.00,0.63
6317.00,0.63
6316.00,0.63
6315.00,0.63
6314.00,0.63
6313.00,0.63
6312.00,0.63
6311.00,0.63
6310.00,0.63
6309.00,0.64
6308.00,0.64
6307.00,0.64
6306.00,0.64
6305.00,0.64
6304.00,0.64
6303.00,0.64
6302.00,0.64
6301.00,0.64
6300.00,0.64
6299.00,0.64
6298.00,0.64
6297.00,0.64
6296.00,0.64
6295.00,0.64
6294.00,0.64
6293.00,0.64
6292.00,0.64
6291.00,0.64
6290.00,0.64
6289.00,0.64
6288.00,0.64
6287.00,0.64
6286.00,0.64
6285.00,0.64
6284.00,0.64
6283.00,0.64
6282.00,0.65
6281.00,0.65
6280.00,0.65
6279.00,0.65
6278.00,0.65
6277.00,0.65
6276.00,0.65
6275.00,0.65
6274.00,0.65
6273.00,0.65
6272.00,0.65
6271.00,0.65
6270.00,0.66
6269.00,0.66
6268.00,0.66
6267.00,0.66
6266.00,0.66
6265.00,0.66
6264.00,0.66
6263.00,0.66
6262.00,0.66
6261.00,0.66
6260.00,0.66
6259.00,0.66
6258.00,0.66
6257.00,0.67
6256.00,0.67
6255.00,0.67
6254.00,0.67
6253.00,0.67
6252.00,0.67
6251.00,0.67
6250.00,0.67
6249.00,0.67
6248.00,0.67
6247.00,0.68
6246.00,0.68
6245.00,0.68
6244.00,0.68
6243.00,0.68
6242.00,0.68
6241.00,0.68
6240.00,0.68
6239.00,0.68
6238.00,0.68
6237.00,0.68
6236.00,0.68
6235.00,0.68
6234.00,0.68
6233.00,0.68
6232.00,0.69
6231.00,0.69
6230.00,0.69
6229.00,0.69
6228.00,0.69
6227.00,0.69
6226.00,0.69
6225.00,0.69
6224.00,0.69
6223.00,0.69
6222.00,0.69
6221.00,0.69
6220.00,0.69
6219.00,0.69
6218.00,0.69
6217.00,0.69
6216.00,0.69
6215.00,0.69
6214.00,0.70
6213.00,0.70
6212.00,0.70
6211.00,0.70
6210.00,0.70
6209.00,0.70
6208.00,0.70
6207.00,0.70
6206.00,0.70
6205.00,0.70
6204.00,0.70
6203.00,0.70
6202.00,0.70
6201.00,0.70
6200.00,0.71
6199.00,0.71
6198.00,0.71
6197.00,0.71
6196.00,0.71
6195.00,0.71
6194.00,0.71
6193.00,0.71
6192.00,0.71
6191.00,0.71
6190.00,0.71
6189.00,0.72
6188.00,0.72
6187.00,0.72
6186.00,0.72
6185.00,0.72
6184.00,0.72
6183.00,0.72
6182.00,0.72
6181.00,0.72
6180.00,0.72
6179.00,0.72
6178.00,0.72
6177.00,0.72
6176.00,0.73
6175.00,0.73
6174.00,0.73
6173.00,0.73
6172.00,0.73
6171.00,0.73
6170.00,0.73
6169.00,0.73
6168.00,0.73
6167.00,0.73
6166.00,0.73
6165.00,0.73
6164.00,0.73
6163.00,0.73
6162.00,0.74
6161.00,0.74
6160.00,0.74
6159.00,0.74
6158.00,0.74
6157.00,0.74
6156.00,0.74
6155.00,0.74
6154.00,0.74
6153.00,0.74
6152.00,0.75
6151.00,0.75
6150.00,0.75
6149.00,0.75
6148.00,0.75
6147.00,0.75
6146.00,0.75
6145.00,0.75
6144.00,0.75
6143.00,0.75
6142.00,0.75
6141.00,0.75
6140.00,0.75
6139.00,0.75
6138.00,0.75
6137.00,0.75
6136.00,0.75
6135.00,0.75
6134.00,0.76
6133.00,0.76
6132.00,0.76
6131.00,0.76
6130.00,0.76
6129.00,0.76
6128.00,0.76
6127.00,0.76
6126.00,0.76
6125.00,0.76
6124.00,0.76
6123.00,0.76
6122.00,0.77
6121.00,0.77
6120.00,0.77
6119.00,0.77
6118.00,0.77
6117.00,0.77
6116.00,0.77
6115.00,0.77
6114.00,0.77
6113.00,0.77
6112.00,0.78
6111.00,0.78
6110.00,0.78
6109.00,0.78
6108.00,0.78
6107.00,0.78
6106.00,0.78
6105.00,0.78
6104.00,0.78
6103.00,0.78
6102.00,0.78
6101.00,0.78
6100.00,0.79
6099.00,0.79
6098.00,0.79
6097.00,0.79
6096.00,0.79
6095.00,0.79
6094.00,0.79
6093.00,0.79
6092.00,0.79
6091.00,0.79
6090.00,0.79
6089.00,0.79
6088.00,0.79
6087.00,0.79
6086.00,0.79
6085.00,0.79
6084.00,0.79
6083.00,0.79
6082.00,0.79
6081.00,0.79
6080.00,0.79
6079.00,0.79
6078.00,0.80
6077.00,0.80
6076.00,0.80
6075.00,0.80
6074.00,0.80
6073.00,0.80
6072.00,0.80
6071.00,0.80
6070.00,0.80
6069.00,0.80
6068.00,0.80
6067.00,0.80
6066.00,0.80
6065.00,0.81
6064.00,0.81
6063.00,0.81
6062.00,0.81
6061.00,0.81
6060.00,0.81
6059.00,0.81
6058.00,0.81
6057.00,0.81
6056.00,0.81
6055.00,0.81
6054.00,0.81
6053.00,0.81
6052.00,0.81
6051.00,0.81
6050.00,0.81
6049.00,0.82
6048.00,0.82
6047.00,0.82
6046.00,0.82
6045.00,0.82
6044.00,0.82
6043.00,0.82
6042.00,0.82
6041.00,0.82
6040.00,0.82
6039.00,0.82
6038.00,0.82
6037.00,0.82
6036.00,0.82
6035.00,0.82
6034.00,0.82
6033.00,0.82
6032.00,0.82
6031.00,0.82
6030.00,0.82
6029.00,0.82
6028.00,0.82
6027.00,0.82
6026.00,0.82
6025.00,0.82
6024.00,0.82
6023.00,0.82
6022.00,0.82
6021.00,0.82
6020.00,0.82
6019.00,0.82
6018.00,0.82
6017.00,0.82
6016.00,0.82
6015.00,0.82
6014.00,0.82
6013.00,0.82
6012.00,0.82
6011.00,0.83
6010.00,0.83
6009.00,0.83
6008.00,0.83
6007.00,0.83
6006.00,0.82
6005.00,0.82
6004.00,0.82
6003.00,0.82
6002.00,0.82
6001.00,0.82
6000.00,0.82
5999.00,0.82
5998.00,0.82
5997.00,0.82
5996.00,0.82
5995.00,0.82
5994.00,0.82
5993.00,0.82
5992.00,0.82
5991.00,0.82
5990.00,0.82
5989.00,0.82
5988.00,0.82
5987.00,0.81
5986.00,0.81
5985.00,0.81
5984.00,0.81
5983.00,0.81
5982.00,0.81
5981.00,0.81
5980.00,0.81
5979.00,0.80
5978.00,0.80
5977.00,0.80
5976.00,0.80
5975.00,0.79
5974.00,0.79
5973.00,0.79
5972.00,0.79
5971.00,0.78
5970.00,0.78
5969.00,0.78
5968.00,0.77
5967.00,0.77
5966.00,0.77
5965.00,0.77
5964.00,0.76
5963.00,0.76
5962.00,0.75
5961.00,0.75
5960.00,0.75
5959.00,0.74
5958.00,0.74
5957.00,0.74
5956.00,0.73
5955.00,0.73
5954.00,0.73
5953.00,0.73
5952.00,0.72
5951.00,0.72
5950.00,0.72
5949.00,0.72
5948.00,0.72
5947.00,0.71
5946.00,0.71
5945.00,0.71
5944.00,0.71
5943.00,0.71
5942.00,0.71
5941.00,0.71
5940.00,0.71
5939.00,0.71
5938.00,0.71
5937.00,0.71
5936.00,0.71
5935.00,0.71
5934.00,0.71
5933.00,0.71
5932.00,0.71
5931.00,0.71
5930.00,0.70
5929.00,0.70
5928.00,0.70
5927.00,0.70
5926.00,0.70
5925.00,0.70
5924.00,0.70
5923.00,0.70
5922.00,0.70
5921.00,0.70
5920.00,0.70
5919.00,0.69
5918.00,0.69
5917.00,0.69
5916.00,0.69
5915.00,0.69
5914.00,0.69
5913.00,0.69
5912.00,0.69
5911.00,0.69
5910.00,0.68
5909.00,0.68
5908.00,0.68
5907.00,0.68
5906.00,0.68
5905.00,0.68
5904.00,0.68
5903.00,0.68
5902.00,0.68
5901.00,0.68
5900.00,0.68
5899.00,0.68
5898.00,0.68
5897.00,0.68
5896.00,0.68
5895.00,0.68
5894.00,0.69
5893.00,0.69
5892.00,0.69
5891.00,0.69
5890.00,0.69
5889.00,0.69
5888.00,0.69
5887.00,0.70
5886.00,0.70
5885.00,0.70
5884.00,0.70
5883.00,0.70
5882.00,0.70
5881.00,0.70
5880.00,0.71
5879.00,0.71
5878.00,0.71
5877.00,0.71
5876.00,0.71
5875.00,0.71
5874.00,0.71
5873.00,0.71
5872.00,0.72
5871.00,0.72
5870.00,0.72
5869.00,0.72
5868.00,0.72
5867.00,0.72
5866.00,0.72
5865.00,0.72
5864.00,0.72
5863.00,0.73
5862.00,0.73
5861.00,0.73
5860.00,0.73
5859.00,0.73
5858.00,0.73
5857.00,0.73
5856.00,0.73
5855.00,0.73
5854.00,0.73
5853.00,0.73
5852.00,0.73
5851.00,0.73
5850.00,0.73
5849.00,0.73
5848.00,0.73
5847.00,0.73
5846.00,0.73
5845.00,0.73
5844.00,0.73
5843.00,0.73
5842.00,0.73
5841.00,0.73
5840.00,0.73
5839.00,0.73
5838.00,0.73
5837.00,0.73
5836.00,0.73
5835.00,0.73
5834.00,0.73
5833.00,0.73
5832.00,0.73
5831.00,0.73
5830.00,0.73
5829.00,0.73
5828.00,0.73
5827.00,0.73
5826.00,0.73
5825.00,0.73
5824.00,0.73
5823.00,0.73
5822.00,0.73
5821.00,0.73
5820.00,0.73
5819.00,0.73
5818.00,0.73
5817.00,0.73
5816.00,0.73
5815.00,0.73
5814.00,0.73
5813.00,0.73
5812.00,0.73
5811.00,0.73
5810.00,0.73
5809.00,0.73
5808.00,0.73
5807.00,0.73
5806.00,0.73
5805.00,0.73
5804.00,0.73
5803.00,0.73
5802.00,0.73
5801.00,0.73
5800.00,0.73
5799.00,0.72
5798.00,0.72
5797.00,0.72
5796.00,0.72
5795.00,0.72
5794.00,0.72
5793.00,0.72
5792.00,0.72
5791.00,0.71
5790.00,0.71
5789.00,0.71
5788.00,0.71
5787.00,0.71
5786.00,0.71
5785.00,0.71
5784.00,0.70
5783.00,0.70
5782.00,0.70
5781.00,0.70
5780.00,0.70
5779.00,0.70
5778.00,0.70
5777.00,0.70
5776.00,0.70
5775.00,0.70
5774.00,0.70
5773.00,0.70
5772.00,0.70
5771.00,0.70
5770.00,0.70
5769.00,0.70
5768.00,0.70
5767.00,0.70
5766.00,0.70
5765.00,0.70
5764.00,0.71
5763.00,0.71
5762.00,0.71
5761.00,0.71
5760.00,0.71
5759.00,0.71
5758.00,0.71
5757.00,0.71
5756.00,0.71
5755.00,0.72
5754.00,0.72
5753.00,0.72
5752.00,0.72
5751.00,0.72
5750.00,0.72
5749.00,0.72
5748.00,0.73
5747.00,0.73
5746.00,0.73
5745.00,0.73
5744.00,0.73
5743.00,0.73
5742.00,0.73
5741.00,0.73
5740.00,0.74
5739.00,0.74
5738.00,0.74
5737.00,0.74
5736.00,0.74
5735.00,0.74
5734.00,0.74
5733.00,0.74
5732.00,0.74
5731.00,0.74
5730.00,0.74
5729.00,0.74
5728.00,0.74
5727.00,0.74
5726.00,0.75
5725.00,0.75
5724.00,0.75
5723.00,0.75
5722.00,0.75
5721.00,0.75
5720.00,0.75
5719.00,0.75
5718.00,0.75
5717.00,0.75
5716.00,0.75
5715.00,0.75
5714.00,0.74
5713.00,0.74
5712.00,0.74
5711.00,0.74
5710.00,0.74
5709.00,0.74
5708.00,0.74
5707.00,0.74
5706.00,0.74
5705.00,0.74
5704.00,0.74
5703.00,0.74
5702.00,0.74
5701.00,0.74
5700.00,0.73
5699.00,0.73
5698.00,0.73
5697.00,0.73
5696.00,0.73
5695.00,0.73
5694.00,0.73
5693.00,0.73
5692.00,0.73
5691.00,0.73
5690.00,0.72
5689.00,0.72
5688.00,0.72
5687.00,0.72
5686.00,0.72
5685.00,0.72
5684.00,0.72
5683.00,0.72
5682.00,0.72
5681.00,0.72
5680.00,0.72
5679.00,0.72
5678.00,0.72
5677.00,0.72
5676.00,0.72
5675.00,0.72
5674.00,0.72
5673.00,0.72
5672.00,0.72
5671.00,0.72
5670.00,0.72
5669.00,0.72
5668.00,0.72
5667.00,0.72
5666.00,0.72
5665.00,0.72
5664.00,0.72
5663.00,0.72
5662.00,0.72
5661.00,0.72
5660.00,0.72
5659.00,0.72
5658.00,0.72
5657.00,0.72
5656.00,0.72
5655.00,0.72
5654.00,0.72
5653.00,0.72
5652.00,0.73
5651.00,0.73
5650.00,0.73
5649.00,0.73
5648.00,0.73
5647.00,0.73
5646.00,0.73
5645.00,0.73
5644.00,0.73
5643.00,0.73
5642.00,0.73
5641.00,0.73
5640.00,0.73
5639.00,0.73
5638.00,0.73
5637.00,0.74
5636.00,0.74
5635.00,0.74
5634.00,0.74
5633.00,0.74
5632.00,0.74
5631.00,0.74
5630.00,0.74
5629.00,0.74
5628.00,0.74
5627.00,0.74
5626.00,0.74
5625.00,0.74
5624.00,0.74
5623.00,0.75
5622.00,0.75
5621.00,0.75
5620.00,0.75
5619.00,0.75
5618.00,0.75
5617.00,0.75
5616.00,0.75
5615.00,0.75
5614.00,0.75
5613.00,0.75
5612.00,0.75
5611.00,0.75
5610.00,0.75
5609.00,0.76
5608.00,0.76
5607.00,0.76
5606.00,0.76
5605.00,0.76
5604.00,0.76
5603.00,0.76
5602.00,0.76
5601.00,0.76
5600.00,0.76
5599.00,0.76
5598.00,0.76
5597.00,0.76
5596.00,0.76
5595.00,0.76
5594.00,0.76
5593.00,0.77
5592.00,0.77
5591.00,0.77
5590.00,0.77
5589.00,0.77
5588.00,0.77
5587.00,0.77
5586.00,0.77
5585.00,0.77
5584.00,0.77
5583.00,0.77
5582.00,0.77
5581.00,0.78
5580.00,0.78
5579.00,0.78
5578.00,0.78
5577.00,0.78
5576.00,0.78
5575.00,0.78
5574.00,0.78
5573.00,0.78
5572.00,0.78
5571.00,0.78
5570.00,0.78
5569.00,0.78
5568.00,0.79
5567.00,0.79
5566.00,0.79
5565.00,0.79
5564.00,0.79
5563.00,0.79
5562.00,0.79
5561.00,0.79
5560.00,0.79
5559.00,0.79
5558.00,0.79
5557.00,0.79
5556.00,0.79
5555.00,0.79
5554.00,0.79
5553.00,0.79
5552.00,0.79
5551.00,0.80
5550.00,0.80
5549.00,0.80
5548.00,0.80
5547.00,0.80
5546.00,0.80
5545.00,0.80
5544.00,0.80
5543.00,0.80
5542.00,0.80
5541.00,0.80
5540.00,0.80
5539.00,0.80
5538.00,0.80
5537.00,0.80
5536.00,0.80
5535.00,0.81
5534.00,0.81
5533.00,0.81
5532.00,0.81
5531.00,0.81
5530.00,0.81
5529.00,0.81
5528.00,0.81
5527.00,0.81
5526.00,0.81
5525.00,0.81
5524.00,0.81
5523.00,0.81
5522.00,0.81
5521.00,0.81
5520.00,0.81
5519.00,0.81
5518.00,0.81
5517.00,0.81
5516.00,0.81
5515.00,0.81
5514.00,0.81
5513.00,0.81
5512.00,0.81
5511.00,0.81
5510.00,0.81
5509.00,0.81
5508.00,0.81
5507.00,0.81
5506.00,0.81
5505.00,0.81
5504.00,0.81
5503.00,0.81
5502.00,0.81
5501.00,0.81
5500.00,0.81
5499.00,0.81
5498.00,0.81
5497.00,0.81
5496.00,0.81
5495.00,0.81
5494.00,0.82
5493.00,0.82
5492.00,0.82
5491.00,0.82
5490.00,0.82
5489.00,0.82
5488.00,0.82
5487.00,0.82
5486.00,0.82
5485.00,0.82
5484.00,0.82
5483.00,0.82
5482.00,0.82
5481.00,0.82
5480.00,0.82
5479.00,0.83
5478.00,0.83
5477.00,0.83
5476.00,0.83
5475.00,0.83
5474.00,0.83
5473.00,0.83
5472.00,0.83
5471.00,0.83
5470.00,0.83
5469.00,0.83
5468.00,0.83
5467.00,0.83
5466.00,0.83
5465.00,0.83
5464.00,0.83
5463.00,0.83
5462.00,0.83
5461.00,0.84
5460.00,0.84
5459.00,0.84
5458.00,0.84
5457.00,0.84
5456.00,0.84
5455.00,0.84
5454.00,0.83
5453.00,0.83
5452.00,0.83
5451.00,0.83
5450.00,0.83
5449.00,0.83
5448.00,0.83
5447.00,0.83
5446.00,0.83
5445.00,0.83
5444.00,0.83
5443.00,0.84
5442.00,0.84
5441.00,0.84
5440.00,0.84
5439.00,0.84
5438.00,0.84
5437.00,0.84
5436.00,0.84
5435.00,0.84
5434.00,0.84
5433.00,0.84
5432.00,0.84
5431.00,0.84
5430.00,0.84
5429.00,0.84
5428.00,0.84
5427.00,0.84
5426.00,0.84
5425.00,0.84
5424.00,0.84
5423.00,0.84
5422.00,0.84
5421.00,0.84
5420.00,0.84
5419.00,0.84
5418.00,0.84
5417.00,0.84
5416.00,0.84
5415.00,0.84
5414.00,0.83
5413.00,0.83
5412.00,0.83
5411.00,0.83
5410.00,0.83
5409.00,0.83
5408.00,0.83
5407.00,0.83
5406.00,0.83
5405.00,0.83
5404.00,0.83
5403.00,0.83
5402.00,0.83
5401.00,0.83
5400.00,0.83
5399.00,0.83
5398.00,0.83
5397.00,0.83
5396.00,0.83
5395.00,0.82
5394.00,0.82
5393.00,0.82
5392.00,0.82
5391.00,0.82
5390.00,0.82
5389.00,0.82
5388.00,0.82
5387.00,0.81
5386.00,0.81
5385.00,0.81
5384.00,0.81
5383.00,0.81
5382.00,0.81
5381.00,0.80
5380.00,0.80
5379.00,0.80
5378.00,0.80
5377.00,0.79
5376.00,0.79
5375.00,0.79
5374.00,0.79
5373.00,0.79
5372.00,0.78
5371.00,0.78
5370.00,0.78
5369.00,0.77
5368.00,0.77
5367.00,0.77
5366.00,0.77
5365.00,0.76
5364.00,0.76
5363.00,0.76
5362.00,0.75
5361.00,0.75
5360.00,0.74
5359.00,0.74
5358.00,0.74
5357.00,0.73
5356.00,0.73
5355.00,0.72
5354.00,0.72
5353.00,0.71
5352.00,0.71
5351.00,0.70
5350.00,0.70
5349.00,0.69
5348.00,0.69
5347.00,0.68
5346.00,0.67
5345.00,0.67
5344.00,0.66
5343.00,0.66
5342.00,0.65
5341.00,0.65
5340.00,0.64
5339.00,0.63
5338.00,0.63
5337.00,0.62
5336.00,0.62
5335.00,0.61
5334.00,0.60
5333.00,0.60
5332.00,0.59
5331.00,0.59
5330.00,0.58
5329.00,0.57
5328.00,0.57
5327.00,0.56
5326.00,0.56
5325.00,0.55
5324.00,0.55
5323.00,0.54
5322.00,0.53
5321.00,0.53
5320.00,0.52
5319.00,0.52
5318.00,0.51
5317.00,0.50
5316.00,0.50
5315.00,0.49
5314.00,0.49
5313.00,0.48
5312.00,0.48
5311.00,0.47
5310.00,0.47
5309.00,0.46
5308.00,0.46
5307.00,0.45
5306.00,0.45
5305.00,0.44
5304.00,0.44
5303.00,0.43
5302.00,0.43
5301.00,0.43
5300.00,0.42
5299.00,0.42
5298.00,0.42
5297.00,0.41
5296.00,0.41
5295.00,0.41
5294.00,0.41
5293.00,0.40
5292.00,0.40
5291.00,0.40
5290.00,0.40
5289.00,0.40
5288.00,0.39
5287.00,0.39
5286.00,0.39
5285.00,0.39
5284.00,0.39
5283.00,0.39
5282.00,0.38
5281.00,0.38
5280.00,0.38
5279.00,0.38
5278.00,0.38
5277.00,0.38
5276.00,0.38
5275.00,0.38
5274.00,0.38
5273.00,0.38
5272.00,0.38
5271.00,0.38
5270.00,0.38
5269.00,0.37
5268.00,0.37
5267.00,0.37
5266.00,0.37
5265.00,0.37
5264.00,0.37
5263.00,0.37
5262.00,0.37
5261.00,0.37
5260.00,0.37
5259.00,0.37
5258.00,0.37
5257.00,0.37
5256.00,0.37
5255.00,0.37
5254.00,0.37
5253.00,0.37
5252.00,0.37
5251.00,0.37
5250.00,0.37
5249.00,0.37
5248.00,0.37
5247.00,0.37
5246.00,0.37
5245.00,0.37
5244.00,0.37
5243.00,0.37
5242.00,0.37
5241.00,0.37
5240.00,0.37
5239.00,0.37
5238.00,0.37
5237.00,0.37
5236.00,0.37
5235.00,0.37
5234.00,0.37
5233.00,0.37
5232.00,0.37
5231.00,0.37
5230.00,0.37
5229.00,0.37
5228.00,0.37
5227.00,0.37
5226.00,0.37
5225.00,0.37
5224.00,0.37
5223.00,0.37
5222.00,0.37
5221.00,0.37
5220.00,0.37
5219.00,0.37
5218.00,0.37
5217.00,0.37
5216.00,0.37
5215.00,0.37
5214.00,0.37
5213.00,0.37
5212.00,0.37
5211.00,0.37
5210.00,0.37
5209.00,0.37
5208.00,0.37
5207.00,0.37
5206.00,0.37
5205.00,0.37
5204.00,0.37
5203.00,0.37
5202.00,0.37
5201.00,0.37
5200.00,0.37
5199.00,0.37
5198.00,0.37
5197.00,0.37
5196.00,0.37
5195.00,0.38
5194.00,0.38
5193.00,0.38
5192.00,0.38
5191.00,0.38
5190.00,0.38
5189.00,0.38
5188.00,0.38
5187.00,0.38
5186.00,0.38
5185.00,0.38
5184.00,0.38
5183.00,0.38
5182.00,0.38
5181.00,0.38
5180.00,0.38
5179.00,0.38
5178.00,0.38
5177.00,0.38
5176.00,0.38
5175.00,0.38
5174.00,0.38
5173.00,0.39
5172.00,0.39
5171.00,0.39
5170.00,0.39
5169.00,0.39
5168.00,0.39
5167.00,0.39
5166.00,0.39
5165.00,0.39
5164.00,0.39
5163.00,0.39
5162.00,0.39
5161.00,0.39
5160.00,0.39
5159.00,0.39
5158.00,0.39
5157.00,0.39
5156.00,0.39
5155.00,0.39
5154.00,0.39
5153.00,0.39
5152.00,0.39
5151.00,0.39
5150.00,0.39
5149.00,0.39
5148.00,0.39
5147.00,0.39
5146.00,0.39
5145.00,0.40
5144.00,0.40
5143.00,0.40
5142.00,0.40
5141.00,0.40
5140.00,0.40
5139.00,0.40
5138.00,0.40
5137.00,0.40
5136.00,0.40
5135.00,0.40
5134.00,0.40
5133.00,0.40
5132.00,0.40
5131.00,0.40
5130.00,0.40
5129.00,0.40
5128.00,0.40
5127.00,0.40
5126.00,0.40
5125.00,0.40
5124.00,0.40
5123.00,0.40
5122.00,0.40
5121.00,0.40
5120.00,0.40
5119.00,0.40
5118.00,0.40
5117.00,0.40
5116.00,0.40
5115.00,0.40
5114.00,0.40
5113.00,0.40
5112.00,0.40
5111.00,0.40
5110.00,0.40
5109.00,0.40
5108.00,0.41
5107.00,0.41
5106.00,0.41
5105.00,0.41
5104.00,0.41
5103.00,0.41
5102.00,0.41
5101.00,0.41
5100.00,0.41
5099.00,0.41
5098.00,0.41
5097.00,0.41
5096.00,0.41
5095.00,0.41
5094.00,0.41
5093.00,0.41
5092.00,0.41
5091.00,0.41
5090.00,0.41
5089.00,0.41
5088.00,0.41
5087.00,0.41
5086.00,0.41
5085.00,0.41
5084.00,0.41
5083.00,0.41
5082.00,0.41
5081.00,0.41
5080.00,0.41
5079.00,0.42
5078.00,0.42
5077.00,0.42
5076.00,0.42
5075.00,0.42
5074.00,0.42
5073.00,0.42
5072.00,0.42
5071.00,0.42
5070.00,0.42
5069.00,0.42
5068.00,0.42
5067.00,0.42
5066.00,0.42
5065.00,0.42
5064.00,0.42
5063.00,0.42
5062.00,0.42
5061.00,0.42
5060.00,0.43
5059.00,0.43
5058.00,0.43
5057.00,0.43
5056.00,0.43
5055.00,0.43
5054.00,0.43
5053.00,0.43
5052.00,0.43
5051.00,0.43
5050.00,0.43
5049.00,0.43
5048.00,0.43
5047.00,0.43
5046.00,0.43
5045.00,0.43
5044.00,0.43
5043.00,0.43
5042.00,0.43
5041.00,0.43
5040.00,0.43
5039.00,0.43
5038.00,0.43
5037.00,0.43
5036.00,0.44
5035.00,0.44
5034.00,0.44
5033.00,0.44
5032.00,0.44
5031.00,0.44
5030.00,0.44
5029.00,0.44
5028.00,0.44
5027.00,0.44
5026.00,0.44
5025.00,0.44
5024.00,0.44
5023.00,0.44
5022.00,0.44
5021.00,0.44
5020.00,0.44
5019.00,0.44
5018.00,0.44
5017.00,0.44
5016.00,0.44
5015.00,0.44
5014.00,0.44
5013.00,0.44
5012.00,0.44
5011.00,0.45
5010.00,0.45
5009.00,0.45
5008.00,0.45
5007.00,0.45
5006.00,0.45
5005.00,0.45
5004.00,0.45
5003.00,0.45
5002.00,0.45
5001.00,0.45
5000.00,0.45
4999.00,0.45
4998.00,0.46
4997.00,0.46
4996.00,0.46
4995.00,0.46
4994.00,0.46
4993.00,0.46
4992.00,0.46
4991.00,0.46
4990.00,0.46
4989.00,0.46
4988.00,0.46
4987.00,0.46
4986.00,0.46
4985.00,0.46
4984.00,0.47
4983.00,0.47
4982.00,0.47
4981.00,0.47
4980.00,0.47
4979.00,0.47
4978.00,0.47
4977.00,0.47
4976.00,0.47
4975.00,0.47
4974.00,0.47
4973.00,0.47
4972.00,0.47
4971.00,0.47
4970.00,0.47
4969.00,0.48
4968.00,0.48
4967.00,0.48
4966.00,0.48
4965.00,0.48
4964.00,0.48
4963.00,0.48
4962.00,0.48
4961.00,0.48
4960.00,0.48
4959.00,0.48
4958.00,0.48
4957.00,0.48
4956.00,0.48
4955.00,0.48
4954.00,0.48
4953.00,0.49
4952.00,0.49
4951.00,0.49
4950.00,0.49
4949.00,0.49
4948.00,0.49
4947.00,0.49
4946.00,0.49
4945.00,0.49
4944.00,0.49
4943.00,0.49
4942.00,0.49
4941.00,0.49
4940.00,0.49
4939.00,0.49
4938.00,0.49
4937.00,0.49
4936.00,0.49
4935.00,0.50
4934.00,0.50
4933.00,0.50
4932.00,0.50
4931.00,0.50
4930.00,0.50
4929.00,0.50
4928.00,0.50
4927.00,0.50
4926.00,0.50
4925.00,0.50
4924.00,0.50
4923.00,0.50
4922.00,0.50
4921.00,0.50
4920.00,0.50
4919.00,0.50
4918.00,0.50
4917.00,0.50
4916.00,0.51
4915.00,0.51
4914.00,0.51
4913.00,0.51
4912.00,0.51
4911.00,0.51
4910.00,0.51
4909.00,0.51
4908.00,0.51
4907.00,0.51
4906.00,0.51
4905.00,0.51
4904.00,0.51
4903.00,0.51
4902.00,0.52
4901.00,0.52
4900.00,0.52
4899.00,0.52
4898.00,0.52
4897.00,0.52
4896.00,0.52
4895.00,0.52
4894.00,0.52
4893.00,0.52
4892.00,0.52
4891.00,0.52
4890.00,0.52
4889.00,0.52
4888.00,0.52
4887.00,0.52
4886.00,0.52
4885.00,0.52
4884.00,0.52
4883.00,0.52
4882.00,0.52
4881.00,0.52
4880.00,0.53
4879.00,0.53
4878.00,0.53
4877.00,0.53
4876.00,0.53
4875.00,0.53
4874.00,0.53
4873.00,0.53
4872.00,0.53
4871.00,0.53
4870.00,0.53
4869.00,0.53
4868.00,0.53
4867.00,0.53
4866.00,0.54
4865.00,0.54
4864.00,0.54
4863.00,0.54
4862.00,0.54
4861.00,0.54
4860.00,0.54
4859.00,0.54
4858.00,0.54
4857.00,0.54
4856.00,0.54
4855.00,0.54
4854.00,0.54
4853.00,0.54
4852.00,0.54
4851.00,0.54
4850.00,0.54
4849.00,0.55
4848.00,0.55
4847.00,0.55
4846.00,0.55
4845.00,0.55
4844.00,0.55
4843.00,0.55
4842.00,0.55
4841.00,0.55
4840.00,0.55
4839.00,0.55
4838.00,0.55
4837.00,0.56
4836.00,0.56
4835.00,0.56
4834.00,0.56
4833.00,0.56
4832.00,0.56
4831.00,0.56
4830.00,0.56
4829.00,0.56
4828.00,0.56
4827.00,0.56
4826.00,0.56
4825.00,0.56
4824.00,0.56
4823.00,0.56
4822.00,0.57
4821.00,0.57
4820.00,0.57
4819.00,0.57
4818.00,0.57
4817.00,0.57
4816.00,0.57
4815.00,0.57
4814.00,0.57
4813.00,0.57
4812.00,0.57
4811.00,0.57
4810.00,0.57
4809.00,0.58
4808.00,0.58
4807.00,0.58
4806.00,0.58
4805.00,0.58
4804.00,0.58
4803.00,0.58
4802.00,0.58
4801.00,0.58
4800.00,0.58
4799.00,0.59
4798.00,0.59
4797.00,0.59
4796.00,0.59
4795.00,0.59
4794.00,0.59
4793.00,0.59
4792.00,0.59
4791.00,0.59
4790.00,0.59
4789.00,0.59
4788.00,0.60
4787.00,0.60
4786.00,0.60
4785.00,0.60
4784.00,0.60
4783.00,0.60
4782.00,0.60
4781.00,0.60
4780.00,0.60
4779.00,0.60
4778.00,0.60
4777.00,0.60
4776.00,0.61
4775.00,0.61
4774.00,0.61
4773.00,0.61
4772.00,0.61
4771.00,0.61
4770.00,0.61
4769.00,0.61
4768.00,0.61
4767.00,0.62
4766.00,0.62
4765.00,0.62
4764.00,0.62
4763.00,0.62
4762.00,0.62
4761.00,0.62
4760.00,0.63
4759.00,0.63
4758.00,0.63
4757.00,0.63
4756.00,0.63
4755.00,0.63
4754.00,0.63
4753.00,0.63
4752.00,0.64
4751.00,0.64
4750.00,0.64
4749.00,0.64
4748.00,0.64
4747.00,0.64
4746.00,0.64
4745.00,0.64
4744.00,0.65
4743.00,0.65
4742.00,0.65
4741.00,0.65
4740.00,0.65
4739.00,0.65
4738.00,0.65
4737.00,0.65
4736.00,0.65
4735.00,0.66
4734.00,0.66
4733.00,0.66
4732.00,0.66
4731.00,0.66
4730.00,0.66
4729.00,0.66
4728.00,0.66
4727.00,0.67
4726.00,0.67
4725.00,0.67
4724.00,0.67
4723.00,0.67
4722.00,0.67
4721.00,0.68
4720.00,0.68
4719.00,0.68
4718.00,0.68
4717.00,0.68
4716.00,0.68
4715.00,0.68
4714.00,0.69
4713.00,0.69
4712.00,0.69
4711.00,0.69
4710.00,0.69
4709.00,0.69
4708.00,0.69
4707.00,0.70
4706.00,0.70
4705.00,0.70
4704.00,0.70
4703.00,0.70
4702.00,0.70
4701.00,0.71
4700.00,0.71
4699.00,0.71
4698.00,0.71
4697.00,0.71
4696.00,0.71
4695.00,0.71
4694.00,0.71
4693.00,0.71
4692.00,0.72
4691.00,0.72
4690.00,0.72
4689.00,0.72
4688.00,0.72
4687.00,0.72
4686.00,0.72
4685.00,0.72
4684.00,0.72
4683.00,0.72
4682.00,0.72
4681.00,0.72
4680.00,0.72
4679.00,0.72
4678.00,0.73
4677.00,0.73
4676.00,0.73
4675.00,0.73
4674.00,0.73
4673.00,0.73
4672.00,0.73
4671.00,0.73
4670.00,0.73
4669.00,0.73
4668.00,0.73
4667.00,0.74
4666.00,0.74
4665.00,0.74
4664.00,0.74
4663.00,0.74
4662.00,0.74
4661.00,0.74
4660.00,0.74
4659.00,0.74
4658.00,0.74
4657.00,0.75
4656.00,0.75
4655.00,0.75
4654.00,0.75
4653.00,0.75
4652.00,0.75
4651.00,0.75
4650.00,0.75
4649.00,0.75
4648.00,0.76
4647.00,0.76
4646.00,0.76
4645.00,0.76
4644.00,0.76
4643.00,0.76
4642.00,0.76
4641.00,0.76
4640.00,0.76
4639.00,0.76
4638.00,0.77
4637.00,0.77
4636.00,0.77
4635.00,0.77
4634.00,0.77
4633.00,0.77
4632.00,0.77
4631.00,0.77
4630.00,0.77
4629.00,0.77
4628.00,0.78
4627.00,0.78
4626.00,0.78
4625.00,0.78
4624.00,0.78
4623.00,0.78
4622.00,0.78
4621.00,0.78
4620.00,0.78
4619.00,0.78
4618.00,0.78
4617.00,0.78
4616.00,0.78
4615.00,0.78
4614.00,0.78
4613.00,0.78
4612.00,0.79
4611.00,0.79
4610.00,0.79
4609.00,0.79
4608.00,0.79
4607.00,0.79
4606.00,0.79
4605.00,0.79
4604.00,0.79
4603.00,0.79
4602.00,0.79
4601.00,0.79
4600.00,0.79
4599.00,0.79
4598.00,0.79
4597.00,0.79
4596.00,0.80
4595.00,0.80
4594.00,0.80
4593.00,0.80
4592.00,0.80
4591.00,0.80
4590.00,0.80
4589.00,0.80
4588.00,0.80
4587.00,0.80
4586.00,0.80
4585.00,0.80
4584.00,0.80
4583.00,0.80
4582.00,0.80
4581.00,0.80
4580.00,0.80
4579.00,0.80
4578.00,0.81
4577.00,0.81
4576.00,0.81
4575.00,0.81
4574.00,0.81
4573.00,0.81
4572.00,0.81
4571.00,0.81
4570.00,0.81
4569.00,0.81
4568.00,0.81
4567.00,0.81
4566.00,0.81
4565.00,0.81
4564.00,0.81
4563.00,0.81
4562.00,0.82
4561.00,0.82
4560.00,0.82
4559.00,0.82
4558.00,0.82
4557.00,0.82
4556.00,0.82
4555.00,0.82
4554.00,0.82
4553.00,0.82
4552.00,0.82
4551.00,0.82
4550.00,0.82
4549.00,0.82
4548.00,0.82
4547.00,0.82
4546.00,0.82
4545.00,0.82
4544.00,0.82
4543.00,0.82
4542.00,0.82
4541.00,0.82
4540.00,0.82
4539.00,0.82
4538.00,0.82
4537.00,0.82
4536.00,0.83
4535.00,0.83
4534.00,0.83
4533.00,0.83
4532.00,0.83
4531.00,0.83
4530.00,0.83
4529.00,0.83
4528.00,0.83
4527.00,0.83
4526.00,0.83
4525.00,0.83
4524.00,0.83
4523.00,0.83
4522.00,0.83
4521.00,0.83
4520.00,0.83
4519.00,0.83
4518.00,0.83
4517.00,0.83
4516.00,0.83
4515.00,0.83
4514.00,0.83
4513.00,0.83
4512.00,0.83
4511.00,0.83
4510.00,0.83
4509.00,0.83
4508.00,0.84
4507.00,0.84
4506.00,0.83
4505.00,0.83
4504.00,0.83
4503.00,0.83
4502.00,0.83
4501.00,0.83
4500.00,0.83
4499.00,0.83
4498.00,0.83
4497.00,0.83
4496.00,0.83
4495.00,0.83
4494.00,0.83
4493.00,0.83
4492.00,0.83
4491.00,0.83
4490.00,0.83
4489.00,0.83
4488.00,0.83
4487.00,0.83
4486.00,0.83
4485.00,0.83
4484.00,0.83
4483.00,0.83
4482.00,0.83
4481.00,0.83
4480.00,0.83
4479.00,0.82
4478.00,0.82
4477.00,0.82
4476.00,0.82
4475.00,0.82
4474.00,0.82
4473.00,0.82
4472.00,0.81
4471.00,0.81
4470.00,0.81
4469.00,0.81
4468.00,0.81
4467.00,0.80
4466.00,0.80
4465.00,0.80
4464.00,0.80
4463.00,0.79
4462.00,0.79
4461.00,0.79
4460.00,0.79
4459.00,0.78
4458.00,0.78
4457.00,0.78
4456.00,0.77
4455.00,0.77
4454.00,0.77
4453.00,0.77
4452.00,0.76
4451.00,0.76
4450.00,0.76
4449.00,0.75
4448.00,0.75
4447.00,0.75
4446.00,0.74
4445.00,0.74
4444.00,0.74
4443.00,0.73
4442.00,0.73
4441.00,0.73
4440.00,0.72
4439.00,0.72
4438.00,0.72
4437.00,0.71
4436.00,0.71
4435.00,0.71
4434.00,0.70
4433.00,0.70
4432.00,0.70
4431.00,0.69
4430.00,0.69
4429.00,0.69
4428.00,0.68
4427.00,0.68
4426.00,0.68
4425.00,0.68
4424.00,0.68
4423.00,0.67
4422.00,0.67
4421.00,0.67
4420.00,0.67
4419.00,0.67
4418.00,0.67
4417.00,0.67
4416.00,0.67
4415.00,0.67
4414.00,0.67
4413.00,0.67
4412.00,0.67
4411.00,0.67
4410.00,0.67
4409.00,0.67
4408.00,0.67
4407.00,0.68
4406.00,0.68
4405.00,0.68
4404.00,0.68
4403.00,0.68
4402.00,0.68
4401.00,0.68
4400.00,0.68
4399.00,0.68
4398.00,0.68
4397.00,0.68
4396.00,0.68
4395.00,0.68
4394.00,0.68
4393.00,0.69
4392.00,0.69
4391.00,0.69
4390.00,0.69
4389.00,0.69
4388.00,0.70
4387.00,0.70
4386.00,0.70
4385.00,0.70
4384.00,0.70
4383.00,0.70
4382.00,0.71
4381.00,0.71
4380.00,0.71
4379.00,0.71
4378.00,0.71
4377.00,0.71
4376.00,0.71
4375.00,0.71
4374.00,0.71
4373.00,0.71
4372.00,0.71
4371.00,0.71
4370.00,0.71
4369.00,0.71
4368.00,0.71
4367.00,0.71
4366.00,0.70
4365.00,0.70
4364.00,0.70
4363.00,0.70
4362.00,0.70
4361.00,0.70
4360.00,0.70
4359.00,0.70
4358.00,0.70
4357.00,0.70
4356.00,0.70
4355.00,0.70
4354.00,0.70
4353.00,0.70
4352.00,0.70
4351.00,0.70
4350.00,0.69
4349.00,0.69
4348.00,0.69
4347.00,0.69
4346.00,0.69
4345.00,0.70
4344.00,0.70
4343.00,0.70
4342.00,0.70
4341.00,0.70
4340.00,0.70
4339.00,0.70
4338.00,0.70
4337.00,0.70
4336.00,0.70
4335.00,0.70
4334.00,0.70
4333.00,0.70
4332.00,0.70
4331.00,0.71
4330.00,0.71
4329.00,0.71
4328.00,0.71
4327.00,0.71
4326.00,0.71
4325.00,0.71
4324.00,0.71
4323.00,0.72
4322.00,0.72
4321.00,0.72
4320.00,0.72
4319.00,0.72
4318.00,0.72
4317.00,0.73
4316.00,0.73
4315.00,0.73
4314.00,0.73
4313.00,0.73
4312.00,0.73
4311.00,0.74
4310.00,0.74
4309.00,0.74
4308.00,0.74
4307.00,0.74
4306.00,0.74
4305.00,0.75
4304.00,0.75
4303.00,0.75
4302.00,0.75
4301.00,0.75
4300.00,0.76
4299.00,0.76
4298.00,0.76
4297.00,0.76
4296.00,0.76
4295.00,0.76
4294.00,0.76
4293.00,0.77
4292.00,0.77
4291.00,0.77
4290.00,0.77
4289.00,0.77
4288.00,0.77
4287.00,0.77
4286.00,0.77
4285.00,0.77
4284.00,0.77
4283.00,0.77
4282.00,0.77
4281.00,0.77
4280.00,0.77
4279.00,0.77
4278.00,0.77
4277.00,0.77
4276.00,0.77
4275.00,0.77
4274.00,0.77
4273.00,0.77
4272.00,0.77
4271.00,0.77
4270.00,0.77
4269.00,0.77
4268.00,0.76
4267.00,0.76
4266.00,0.76
4265.00,0.76
4264.00,0.76
4263.00,0.76
4262.00,0.76
4261.00,0.76
4260.00,0.76
4259.00,0.76
4258.00,0.76
4257.00,0.75
4256.00,0.75
4255.00,0.75
4254.00,0.75
4253.00,0.76
4252.00,0.76
4251.00,0.76
4250.00,0.76
4249.00,0.76
4248.00,0.76
4247.00,0.76
4246.00,0.76
4245.00,0.76
4244.00,0.76
4243.00,0.77
4242.00,0.77
4241.00,0.77
4240.00,0.77
4239.00,0.77
4238.00,0.77
4237.00,0.78
4236.00,0.78
4235.00,0.78
4234.00,0.78
4233.00,0.78
4232.00,0.78
4231.00,0.78
4230.00,0.78
4229.00,0.78
4228.00,0.78
4227.00,0.78
4226.00,0.78
4225.00,0.78
4224.00,0.78
4223.00,0.78
4222.00,0.78
4221.00,0.78
4220.00,0.78
4219.00,0.78
4218.00,0.78
4217.00,0.78
4216.00,0.78
4215.00,0.79
4214.00,0.79
4213.00,0.79
4212.00,0.79
4211.00,0.79
4210.00,0.79
4209.00,0.79
4208.00,0.79
4207.00,0.79
4206.00,0.79
4205.00,0.79
4204.00,0.79
4203.00,0.79
4202.00,0.79
4201.00,0.79
4200.00,0.79
4199.00,0.79
4198.00,0.80
4197.00,0.80
4196.00,0.80
4195.00,0.80
4194.00,0.80
4193.00,0.80
4192.00,0.80
4191.00,0.80
4190.00,0.80
4189.00,0.80
4188.00,0.80
4187.00,0.80
4186.00,0.80
4185.00,0.80
4184.00,0.79
4183.00,0.79
4182.00,0.79
4181.00,0.79
4180.00,0.79
4179.00,0.79
4178.00,0.79
4177.00,0.79
4176.00,0.79
4175.00,0.79
4174.00,0.79
4173.00,0.79
4172.00,0.79
4171.00,0.79
4170.00,0.79
4169.00,0.79
4168.00,0.79
4167.00,0.79
4166.00,0.79
4165.00,0.79
4164.00,0.79
4163.00,0.79
4162.00,0.79
4161.00,0.79
4160.00,0.79
4159.00,0.80
4158.00,0.80
4157.00,0.80
4156.00,0.80
4155.00,0.80
4154.00,0.80
4153.00,0.80
4152.00,0.80
4151.00,0.80
4150.00,0.80
4149.00,0.80
4148.00,0.80
4147.00,0.80
4146.00,0.80
4145.00,0.80
4144.00,0.80
4143.00,0.80
4142.00,0.80
4141.00,0.80
4140.00,0.80
4139.00,0.80
4138.00,0.80
4137.00,0.80
4136.00,0.80
4135.00,0.80
4134.00,0.80
4133.00,0.80
4132.00,0.80
4131.00,0.80
4130.00,0.80
4129.00,0.80
4128.00,0.80
4127.00,0.81
4126.00,0.81
4125.00,0.81
4124.00,0.81
4123.00,0.81
4122.00,0.81
4121.00,0.81
4120.00,0.81
4119.00,0.81
4118.00,0.81
4117.00,0.81
4116.00,0.81
4115.00,0.81
4114.00,0.81
4113.00,0.81
4112.00,0.81
4111.00,0.81
4110.00,0.81
4109.00,0.81
4108.00,0.81
4107.00,0.81
4106.00,0.81
4105.00,0.80
4104.00,0.80
4103.00,0.80
4102.00,0.80
4101.00,0.80
4100.00,0.80
4099.00,0.80
4098.00,0.80
4097.00,0.80
4096.00,0.80
4095.00,0.80
4094.00,0.80
4093.00,0.80
4092.00,0.80
4091.00,0.80
4090.00,0.80
4089.00,0.80
4088.00,0.80
4087.00,0.81
4086.00,0.81
4085.00,0.81
4084.00,0.81
4083.00,0.81
4082.00,0.81
4081.00,0.81
4080.00,0.81
4079.00,0.81
4078.00,0.81
4077.00,0.81
4076.00,0.82
4075.00,0.82
4074.00,0.82
4073.00,0.82
4072.00,0.82
4071.00,0.82
4070.00,0.82
4069.00,0.82
4068.00,0.83
4067.00,0.83
4066.00,0.83
4065.00,0.83
4064.00,0.83
4063.00,0.83
4062.00,0.83
4061.00,0.83
4060.00,0.83
4059.00,0.83
4058.00,0.83
4057.00,0.83
4056.00,0.83
4055.00,0.83
4054.00,0.83
4053.00,0.83
4052.00,0.83
4051.00,0.83
4050.00,0.83
4049.00,0.83
4048.00,0.84
4047.00,0.84
4046.00,0.84
4045.00,0.84
4044.00,0.84
4043.00,0.84
4042.00,0.84
4041.00,0.84
4040.00,0.84
4039.00,0.84
4038.00,0.84
4037.00,0.83
4036.00,0.83
4035.00,0.83
4034.00,0.83
4033.00,0.83
4032.00,0.83
4031.00,0.83
4030.00,0.83
4029.00,0.83
4028.00,0.83
4027.00,0.83
4026.00,0.83
4025.00,0.83
4024.00,0.83
4023.00,0.83
4022.00,0.83
4021.00,0.83
4020.00,0.83
4019.00,0.83
4018.00,0.83
4017.00,0.83
4016.00,0.83
4015.00,0.83
4014.00,0.83
4013.00,0.83
4012.00,0.83
4011.00,0.83
4010.00,0.83
4009.00,0.83
4008.00,0.83
4007.00,0.83
4006.00,0.83
4005.00,0.83
4004.00,0.83
4003.00,0.83
4002.00,0.83
4001.00,0.84
4000.00,0.84
