创建为新数据集,样品 493 用户 Administrator 日期 星期一, 七月 16 2018
cm-1,%T
10000.00,0.97
9999.00,0.96
9998.00,0.96
9997.00,0.95
9996.00,0.95
9995.00,0.94
9994.00,0.94
9993.00,0.93
9992.00,0.93
9991.00,0.93
9990.00,0.93
9989.00,0.93
9988.00,0.93
9987.00,0.93
9986.00,0.93
9985.00,0.93
9984.00,0.93
9983.00,0.93
9982.00,0.93
9981.00,0.93
9980.00,0.93
9979.00,0.93
9978.00,0.93
9977.00,0.93
9976.00,0.93
9975.00,0.93
9974.00,0.93
9973.00,0.93
9972.00,0.92
9971.00,0.92
9970.00,0.92
9969.00,0.92
9968.00,0.92
9967.00,0.92
9966.00,0.92
9965.00,0.92
9964.00,0.92
9963.00,0.92
9962.00,0.92
9961.00,0.92
9960.00,0.92
9959.00,0.92
9958.00,0.92
9957.00,0.93
9956.00,0.93
9955.00,0.93
9954.00,0.93
9953.00,0.93
9952.00,0.93
9951.00,0.93
9950.00,0.93
9949.00,0.93
9948.00,0.93
9947.00,0.93
9946.00,0.92
9945.00,0.92
9944.00,0.92
9943.00,0.92
9942.00,0.92
9941.00,0.92
9940.00,0.91
9939.00,0.91
9938.00,0.91
9937.00,0.91
9936.00,0.90
9935.00,0.90
9934.00,0.90
9933.00,0.90
9932.00,0.90
9931.00,0.90
9930.00,0.90
9929.00,0.90
9928.00,0.90
9927.00,0.90
9926.00,0.90
9925.00,0.91
9924.00,0.91
9923.00,0.91
9922.00,0.91
9921.00,0.92
9920.00,0.92
9919.00,0.92
9918.00,0.92
9917.00,0.92
9916.00,0.92
9915.00,0.92
9914.00,0.91
9913.00,0.91
9912.00,0.91
9911.00,0.90
9910.00,0.90
9909.00,0.89
9908.00,0.89
9907.00,0.88
9906.00,0.88
9905.00,0.87
9904.00,0.87
9903.00,0.87
9902.00,0.86
9901.00,0.86
9900.00,0.86
9899.00,0.86
9898.00,0.86
9897.00,0.86
9896.00,0.86
9895.00,0.86
9894.00,0.86
9893.00,0.86
9892.00,0.86
9891.00,0.87
9890.00,0.87
9889.00,0.87
9888.00,0.87
9887.00,0.87
9886.00,0.87
9885.00,0.87
9884.00,0.87
9883.00,0.87
9882.00,0.87
9881.00,0.87
9880.00,0.87
9879.00,0.87
9878.00,0.87
9877.00,0.87
9876.00,0.87
9875.00,0.87
9874.00,0.86
9873.00,0.86
9872.00,0.86
9871.00,0.86
9870.00,0.86
9869.00,0.86
9868.00,0.86
9867.00,0.86
9866.00,0.86
9865.00,0.87
9864.00,0.87
9863.00,0.87
9862.00,0.87
9861.00,0.87
9860.00,0.87
9859.00,0.87
9858.00,0.87
9857.00,0.87
9856.00,0.88
9855.00,0.88
9854.00,0.88
9853.00,0.88
9852.00,0.88
9851.00,0.88
9850.00,0.88
9849.00,0.88
9848.00,0.89
9847.00,0.89
9846.00,0.89
9845.00,0.89
9844.00,0.89
9843.00,0.89
9842.00,0.90
9841.00,0.90
9840.00,0.90
9839.00,0.90
9838.00,0.90
9837.00,0.90
9836.00,0.90
9835.00,0.90
9834.00,0.90
9833.00,0.90
9832.00,0.90
9831.00,0.90
9830.00,0.90
9829.00,0.89
9828.00,0.89
9827.00,0.89
9826.00,0.89
9825.00,0.89
9824.00,0.89
9823.00,0.89
9822.00,0.89
9821.00,0.89
9820.00,0.90
9819.00,0.90
9818.00,0.90
9817.00,0.90
9816.00,0.90
9815.00,0.90
9814.00,0.90
9813.00,0.90
9812.00,0.90
9811.00,0.90
9810.00,0.89
9809.00,0.89
9808.00,0.89
9807.00,0.89
9806.00,0.89
9805.00,0.89
9804.00,0.89
9803.00,0.88
9802.00,0.88
9801.00,0.88
9800.00,0.88
9799.00,0.88
9798.00,0.88
9797.00,0.88
9796.00,0.88
9795.00,0.89
9794.00,0.89
9793.00,0.89
9792.00,0.89
9791.00,0.89
9790.00,0.89
9789.00,0.89
9788.00,0.89
9787.00,0.89
9786.00,0.89
9785.00,0.89
9784.00,0.89
9783.00,0.89
9782.00,0.89
9781.00,0.89
9780.00,0.89
9779.00,0.89
9778.00,0.88
9777.00,0.88
9776.00,0.88
9775.00,0.88
9774.00,0.88
9773.00,0.88
9772.00,0.88
9771.00,0.88
9770.00,0.88
9769.00,0.88
9768.00,0.88
9767.00,0.88
9766.00,0.88
9765.00,0.88
9764.00,0.88
9763.00,0.88
9762.00,0.88
9761.00,0.89
9760.00,0.89
9759.00,0.89
9758.00,0.89
9757.00,0.90
9756.00,0.90
9755.00,0.90
9754.00,0.91
9753.00,0.91
9752.00,0.91
9751.00,0.91
9750.00,0.91
9749.00,0.92
9748.00,0.92
9747.00,0.92
9746.00,0.92
9745.00,0.92
9744.00,0.91
9743.00,0.91
9742.00,0.91
9741.00,0.91
9740.00,0.90
9739.00,0.90
9738.00,0.90
9737.00,0.89
9736.00,0.89
9735.00,0.89
9734.00,0.88
9733.00,0.88
9732.00,0.88
9731.00,0.87
9730.00,0.87
9729.00,0.87
9728.00,0.86
9727.00,0.86
9726.00,0.86
9725.00,0.86
9724.00,0.86
9723.00,0.86
9722.00,0.86
9721.00,0.85
9720.00,0.85
9719.00,0.86
9718.00,0.86
9717.00,0.86
9716.00,0.86
9715.00,0.86
9714.00,0.86
9713.00,0.86
9712.00,0.86
9711.00,0.87
9710.00,0.87
9709.00,0.87
9708.00,0.87
9707.00,0.87
9706.00,0.87
9705.00,0.88
9704.00,0.88
9703.00,0.88
9702.00,0.88
9701.00,0.88
9700.00,0.88
9699.00,0.89
9698.00,0.89
9697.00,0.89
9696.00,0.89
9695.00,0.89
9694.00,0.89
9693.00,0.89
9692.00,0.89
9691.00,0.89
9690.00,0.89
9689.00,0.89
9688.00,0.89
9687.00,0.88
9686.00,0.88
9685.00,0.88
9684.00,0.88
9683.00,0.88
9682.00,0.88
9681.00,0.88
9680.00,0.88
9679.00,0.88
9678.00,0.87
9677.00,0.87
9676.00,0.87
9675.00,0.87
9674.00,0.88
9673.00,0.88
9672.00,0.88
9671.00,0.88
9670.00,0.88
9669.00,0.88
9668.00,0.88
9667.00,0.89
9666.00,0.89
9665.00,0.89
9664.00,0.89
9663.00,0.89
9662.00,0.89
9661.00,0.90
9660.00,0.90
9659.00,0.90
9658.00,0.90
9657.00,0.89
9656.00,0.89
9655.00,0.89
9654.00,0.89
9653.00,0.89
9652.00,0.89
9651.00,0.89
9650.00,0.88
9649.00,0.88
9648.00,0.88
9647.00,0.88
9646.00,0.88
9645.00,0.88
9644.00,0.88
9643.00,0.88
9642.00,0.88
9641.00,0.88
9640.00,0.88
9639.00,0.88
9638.00,0.88
9637.00,0.88
9636.00,0.88
9635.00,0.89
9634.00,0.89
9633.00,0.89
9632.00,0.89
9631.00,0.89
9630.00,0.90
9629.00,0.90
9628.00,0.90
9627.00,0.90
9626.00,0.90
9625.00,0.90
9624.00,0.91
9623.00,0.91
9622.00,0.91
9621.00,0.91
9620.00,0.91
9619.00,0.91
9618.00,0.90
9617.00,0.90
9616.00,0.90
9615.00,0.90
9614.00,0.90
9613.00,0.90
9612.00,0.90
9611.00,0.90
9610.00,0.90
9609.00,0.90
9608.00,0.90
9607.00,0.90
9606.00,0.90
9605.00,0.90
9604.00,0.90
9603.00,0.90
9602.00,0.89
9601.00,0.89
9600.00,0.89
9599.00,0.89
9598.00,0.89
9597.00,0.89
9596.00,0.89
9595.00,0.89
9594.00,0.88
9593.00,0.88
9592.00,0.88
9591.00,0.88
9590.00,0.88
9589.00,0.88
9588.00,0.88
9587.00,0.88
9586.00,0.88
9585.00,0.88
9584.00,0.88
9583.00,0.88
9582.00,0.88
9581.00,0.88
9580.00,0.88
9579.00,0.88
9578.00,0.88
9577.00,0.88
9576.00,0.88
9575.00,0.88
9574.00,0.89
9573.00,0.89
9572.00,0.89
9571.00,0.89
9570.00,0.89
9569.00,0.89
9568.00,0.89
9567.00,0.90
9566.00,0.90
9565.00,0.90
9564.00,0.90
9563.00,0.90
9562.00,0.90
9561.00,0.90
9560.00,0.90
9559.00,0.90
9558.00,0.90
9557.00,0.90
9556.00,0.90
9555.00,0.90
9554.00,0.90
9553.00,0.90
9552.00,0.90
9551.00,0.90
9550.00,0.90
9549.00,0.90
9548.00,0.90
9547.00,0.90
9546.00,0.90
9545.00,0.91
9544.00,0.91
9543.00,0.91
9542.00,0.91
9541.00,0.91
9540.00,0.91
9539.00,0.91
9538.00,0.91
9537.00,0.91
9536.00,0.91
9535.00,0.91
9534.00,0.90
9533.00,0.90
9532.00,0.90
9531.00,0.90
9530.00,0.90
9529.00,0.90
9528.00,0.90
9527.00,0.90
9526.00,0.90
9525.00,0.90
9524.00,0.90
9523.00,0.90
9522.00,0.90
9521.00,0.90
9520.00,0.90
9519.00,0.90
9518.00,0.90
9517.00,0.90
9516.00,0.90
9515.00,0.90
9514.00,0.90
9513.00,0.90
9512.00,0.90
9511.00,0.90
9510.00,0.90
9509.00,0.90
9508.00,0.91
9507.00,0.91
9506.00,0.91
9505.00,0.91
9504.00,0.91
9503.00,0.92
9502.00,0.92
9501.00,0.92
9500.00,0.92
9499.00,0.92
9498.00,0.93
9497.00,0.93
9496.00,0.93
9495.00,0.93
9494.00,0.93
9493.00,0.93
9492.00,0.93
9491.00,0.92
9490.00,0.92
9489.00,0.92
9488.00,0.92
9487.00,0.92
9486.00,0.92
9485.00,0.91
9484.00,0.91
9483.00,0.91
9482.00,0.91
9481.00,0.91
9480.00,0.90
9479.00,0.90
9478.00,0.90
9477.00,0.90
9476.00,0.90
9475.00,0.90
9474.00,0.90
9473.00,0.90
9472.00,0.90
9471.00,0.90
9470.00,0.90
9469.00,0.90
9468.00,0.90
9467.00,0.89
9466.00,0.89
9465.00,0.89
9464.00,0.89
9463.00,0.89
9462.00,0.89
9461.00,0.89
9460.00,0.89
9459.00,0.89
9458.00,0.89
9457.00,0.89
9456.00,0.89
9455.00,0.89
9454.00,0.89
9453.00,0.89
9452.00,0.89
9451.00,0.89
9450.00,0.89
9449.00,0.90
9448.00,0.90
9447.00,0.89
9446.00,0.89
9445.00,0.89
9444.00,0.89
9443.00,0.89
9442.00,0.89
9441.00,0.89
9440.00,0.89
9439.00,0.89
9438.00,0.88
9437.00,0.88
9436.00,0.88
9435.00,0.88
9434.00,0.88
9433.00,0.88
9432.00,0.88
9431.00,0.88
9430.00,0.87
9429.00,0.87
9428.00,0.87
9427.00,0.87
9426.00,0.87
9425.00,0.87
9424.00,0.87
9423.00,0.87
9422.00,0.88
9421.00,0.88
9420.00,0.88
9419.00,0.88
9418.00,0.88
9417.00,0.88
9416.00,0.88
9415.00,0.88
9414.00,0.88
9413.00,0.88
9412.00,0.88
9411.00,0.88
9410.00,0.88
9409.00,0.88
9408.00,0.88
9407.00,0.88
9406.00,0.88
9405.00,0.88
9404.00,0.89
9403.00,0.89
9402.00,0.89
9401.00,0.89
9400.00,0.89
9399.00,0.90
9398.00,0.90
9397.00,0.90
9396.00,0.90
9395.00,0.90
9394.00,0.90
9393.00,0.90
9392.00,0.90
9391.00,0.90
9390.00,0.90
9389.00,0.90
9388.00,0.91
9387.00,0.91
9386.00,0.91
9385.00,0.91
9384.00,0.91
9383.00,0.91
9382.00,0.91
9381.00,0.91
9380.00,0.91
9379.00,0.91
9378.00,0.91
9377.00,0.91
9376.00,0.90
9375.00,0.90
9374.00,0.90
9373.00,0.90
9372.00,0.90
9371.00,0.90
9370.00,0.90
9369.00,0.90
9368.00,0.90
9367.00,0.90
9366.00,0.90
9365.00,0.90
9364.00,0.90
9363.00,0.91
9362.00,0.91
9361.00,0.91
9360.00,0.91
9359.00,0.91
9358.00,0.91
9357.00,0.92
9356.00,0.92
9355.00,0.92
9354.00,0.92
9353.00,0.92
9352.00,0.92
9351.00,0.92
9350.00,0.92
9349.00,0.92
9348.00,0.92
9347.00,0.92
9346.00,0.92
9345.00,0.92
9344.00,0.92
9343.00,0.92
9342.00,0.92
9341.00,0.92
9340.00,0.92
9339.00,0.92
9338.00,0.92
9337.00,0.92
9336.00,0.92
9335.00,0.92
9334.00,0.92
9333.00,0.92
9332.00,0.92
9331.00,0.91
9330.00,0.91
9329.00,0.91
9328.00,0.91
9327.00,0.91
9326.00,0.91
9325.00,0.91
9324.00,0.91
9323.00,0.91
9322.00,0.91
9321.00,0.91
9320.00,0.91
9319.00,0.90
9318.00,0.90
9317.00,0.90
9316.00,0.90
9315.00,0.90
9314.00,0.90
9313.00,0.90
9312.00,0.90
9311.00,0.90
9310.00,0.90
9309.00,0.90
9308.00,0.90
9307.00,0.90
9306.00,0.90
9305.00,0.90
9304.00,0.90
9303.00,0.90
9302.00,0.90
9301.00,0.90
9300.00,0.90
9299.00,0.90
9298.00,0.90
9297.00,0.90
9296.00,0.90
9295.00,0.90
9294.00,0.90
9293.00,0.90
9292.00,0.89
9291.00,0.89
9290.00,0.89
9289.00,0.89
9288.00,0.89
9287.00,0.89
9286.00,0.88
9285.00,0.88
9284.00,0.88
9283.00,0.88
9282.00,0.88
9281.00,0.88
9280.00,0.87
9279.00,0.87
9278.00,0.87
9277.00,0.87
9276.00,0.87
9275.00,0.87
9274.00,0.87
9273.00,0.86
9272.00,0.86
9271.00,0.86
9270.00,0.86
9269.00,0.86
9268.00,0.86
9267.00,0.86
9266.00,0.86
9265.00,0.87
9264.00,0.87
9263.00,0.87
9262.00,0.87
9261.00,0.88
9260.00,0.88
9259.00,0.88
9258.00,0.89
9257.00,0.89
9256.00,0.89
9255.00,0.90
9254.00,0.90
9253.00,0.90
9252.00,0.90
9251.00,0.91
9250.00,0.91
9249.00,0.91
9248.00,0.91
9247.00,0.91
9246.00,0.91
9245.00,0.91
9244.00,0.91
9243.00,0.91
9242.00,0.91
9241.00,0.91
9240.00,0.91
9239.00,0.91
9238.00,0.91
9237.00,0.91
9236.00,0.91
9235.00,0.91
9234.00,0.90
9233.00,0.90
9232.00,0.90
9231.00,0.90
9230.00,0.90
9229.00,0.90
9228.00,0.90
9227.00,0.90
9226.00,0.90
9225.00,0.90
9224.00,0.90
9223.00,0.90
9222.00,0.90
9221.00,0.90
9220.00,0.90
9219.00,0.90
9218.00,0.90
9217.00,0.90
9216.00,0.90
9215.00,0.90
9214.00,0.90
9213.00,0.90
9212.00,0.90
9211.00,0.89
9210.00,0.89
9209.00,0.89
9208.00,0.89
9207.00,0.89
9206.00,0.89
9205.00,0.89
9204.00,0.89
9203.00,0.89
9202.00,0.89
9201.00,0.89
9200.00,0.89
9199.00,0.89
9198.00,0.89
9197.00,0.89
9196.00,0.89
9195.00,0.89
9194.00,0.89
9193.00,0.89
9192.00,0.89
9191.00,0.89
9190.00,0.89
9189.00,0.89
9188.00,0.89
9187.00,0.89
9186.00,0.89
9185.00,0.90
9184.00,0.90
9183.00,0.90
9182.00,0.90
9181.00,0.90
9180.00,0.90
9179.00,0.90
9178.00,0.90
9177.00,0.90
9176.00,0.90
9175.00,0.90
9174.00,0.90
9173.00,0.90
9172.00,0.89
9171.00,0.89
9170.00,0.89
9169.00,0.89
9168.00,0.89
9167.00,0.89
9166.00,0.89
9165.00,0.89
9164.00,0.89
9163.00,0.89
9162.00,0.89
9161.00,0.89
9160.00,0.90
9159.00,0.90
9158.00,0.90
9157.00,0.90
9156.00,0.90
9155.00,0.90
9154.00,0.90
9153.00,0.90
9152.00,0.90
9151.00,0.90
9150.00,0.90
9149.00,0.90
9148.00,0.90
9147.00,0.90
9146.00,0.90
9145.00,0.90
9144.00,0.90
9143.00,0.90
9142.00,0.90
9141.00,0.90
9140.00,0.90
9139.00,0.89
9138.00,0.89
9137.00,0.89
9136.00,0.89
9135.00,0.89
9134.00,0.89
9133.00,0.89
9132.00,0.89
9131.00,0.89
9130.00,0.89
9129.00,0.89
9128.00,0.89
9127.00,0.89
9126.00,0.89
9125.00,0.89
9124.00,0.89
9123.00,0.89
9122.00,0.89
9121.00,0.89
9120.00,0.89
9119.00,0.89
9118.00,0.89
9117.00,0.90
9116.00,0.90
9115.00,0.90
9114.00,0.90
9113.00,0.91
9112.00,0.91
9111.00,0.91
9110.00,0.91
9109.00,0.92
9108.00,0.92
9107.00,0.92
9106.00,0.92
9105.00,0.92
9104.00,0.93
9103.00,0.93
9102.00,0.93
9101.00,0.93
9100.00,0.93
9099.00,0.93
9098.00,0.93
9097.00,0.93
9096.00,0.93
9095.00,0.93
9094.00,0.92
9093.00,0.92
9092.00,0.92
9091.00,0.92
9090.00,0.92
9089.00,0.92
9088.00,0.92
9087.00,0.92
9086.00,0.92
9085.00,0.92
9084.00,0.91
9083.00,0.91
9082.00,0.91
9081.00,0.91
9080.00,0.91
9079.00,0.91
9078.00,0.91
9077.00,0.91
9076.00,0.91
9075.00,0.91
9074.00,0.91
9073.00,0.91
9072.00,0.91
9071.00,0.91
9070.00,0.91
9069.00,0.91
9068.00,0.91
9067.00,0.91
9066.00,0.91
9065.00,0.91
9064.00,0.91
9063.00,0.91
9062.00,0.91
9061.00,0.91
9060.00,0.91
9059.00,0.90
9058.00,0.90
9057.00,0.90
9056.00,0.90
9055.00,0.90
9054.00,0.90
9053.00,0.90
9052.00,0.90
9051.00,0.90
9050.00,0.90
9049.00,0.90
9048.00,0.90
9047.00,0.90
9046.00,0.90
9045.00,0.90
9044.00,0.91
9043.00,0.91
9042.00,0.91
9041.00,0.91
9040.00,0.91
9039.00,0.91
9038.00,0.91
9037.00,0.91
9036.00,0.91
9035.00,0.91
9034.00,0.91
9033.00,0.91
9032.00,0.91
9031.00,0.91
9030.00,0.91
9029.00,0.91
9028.00,0.91
9027.00,0.91
9026.00,0.91
9025.00,0.91
9024.00,0.91
9023.00,0.91
9022.00,0.90
9021.00,0.90
9020.00,0.90
9019.00,0.90
9018.00,0.90
9017.00,0.90
9016.00,0.90
9015.00,0.90
9014.00,0.90
9013.00,0.90
9012.00,0.90
9011.00,0.90
9010.00,0.90
9009.00,0.90
9008.00,0.90
9007.00,0.90
9006.00,0.89
9005.00,0.89
9004.00,0.89
9003.00,0.89
9002.00,0.89
9001.00,0.89
9000.00,0.89
8999.00,0.89
8998.00,0.89
8997.00,0.89
8996.00,0.89
8995.00,0.89
8994.00,0.89
8993.00,0.89
8992.00,0.89
8991.00,0.89
8990.00,0.89
8989.00,0.89
8988.00,0.89
8987.00,0.89
8986.00,0.90
8985.00,0.90
8984.00,0.90
8983.00,0.90
8982.00,0.90
8981.00,0.90
8980.00,0.90
8979.00,0.90
8978.00,0.90
8977.00,0.90
8976.00,0.91
8975.00,0.91
8974.00,0.91
8973.00,0.91
8972.00,0.91
8971.00,0.91
8970.00,0.91
8969.00,0.91
8968.00,0.92
8967.00,0.92
8966.00,0.92
8965.00,0.92
8964.00,0.92
8963.00,0.92
8962.00,0.92
8961.00,0.92
8960.00,0.92
8959.00,0.92
8958.00,0.91
8957.00,0.91
8956.00,0.91
8955.00,0.91
8954.00,0.91
8953.00,0.91
8952.00,0.90
8951.00,0.90
8950.00,0.90
8949.00,0.90
8948.00,0.90
8947.00,0.90
8946.00,0.90
8945.00,0.89
8944.00,0.89
8943.00,0.89
8942.00,0.89
8941.00,0.89
8940.00,0.89
8939.00,0.89
8938.00,0.89
8937.00,0.89
8936.00,0.89
8935.00,0.89
8934.00,0.89
8933.00,0.89
8932.00,0.89
8931.00,0.89
8930.00,0.89
8929.00,0.90
8928.00,0.90
8927.00,0.90
8926.00,0.90
8925.00,0.90
8924.00,0.90
8923.00,0.91
8922.00,0.91
8921.00,0.91
8920.00,0.91
8919.00,0.91
8918.00,0.91
8917.00,0.91
8916.00,0.91
8915.00,0.91
8914.00,0.91
8913.00,0.91
8912.00,0.91
8911.00,0.91
8910.00,0.91
8909.00,0.91
8908.00,0.91
8907.00,0.91
8906.00,0.92
8905.00,0.92
8904.00,0.92
8903.00,0.92
8902.00,0.92
8901.00,0.92
8900.00,0.92
8899.00,0.92
8898.00,0.92
8897.00,0.92
8896.00,0.92
8895.00,0.92
8894.00,0.92
8893.00,0.92
8892.00,0.92
8891.00,0.92
8890.00,0.92
8889.00,0.92
8888.00,0.92
8887.00,0.92
8886.00,0.92
8885.00,0.92
8884.00,0.92
8883.00,0.92
8882.00,0.92
8881.00,0.92
8880.00,0.92
8879.00,0.92
8878.00,0.92
8877.00,0.92
8876.00,0.92
8875.00,0.92
8874.00,0.92
8873.00,0.92
8872.00,0.92
8871.00,0.92
8870.00,0.92
8869.00,0.92
8868.00,0.92
8867.00,0.92
8866.00,0.91
8865.00,0.91
8864.00,0.91
8863.00,0.91
8862.00,0.91
8861.00,0.91
8860.00,0.91
8859.00,0.91
8858.00,0.90
8857.00,0.90
8856.00,0.90
8855.00,0.90
8854.00,0.90
8853.00,0.90
8852.00,0.90
8851.00,0.90
8850.00,0.90
8849.00,0.90
8848.00,0.90
8847.00,0.90
8846.00,0.90
8845.00,0.90
8844.00,0.90
8843.00,0.90
8842.00,0.90
8841.00,0.90
8840.00,0.90
8839.00,0.90
8838.00,0.90
8837.00,0.90
8836.00,0.91
8835.00,0.91
8834.00,0.91
8833.00,0.91
8832.00,0.91
8831.00,0.91
8830.00,0.91
8829.00,0.91
8828.00,0.91
8827.00,0.91
8826.00,0.91
8825.00,0.91
8824.00,0.91
8823.00,0.91
8822.00,0.91
8821.00,0.91
8820.00,0.91
8819.00,0.91
8818.00,0.91
8817.00,0.91
8816.00,0.91
8815.00,0.91
8814.00,0.91
8813.00,0.91
8812.00,0.91
8811.00,0.91
8810.00,0.91
8809.00,0.91
8808.00,0.91
8807.00,0.91
8806.00,0.90
8805.00,0.90
8804.00,0.90
8803.00,0.90
8802.00,0.90
8801.00,0.90
8800.00,0.90
8799.00,0.90
8798.00,0.89
8797.00,0.89
8796.00,0.89
8795.00,0.89
8794.00,0.89
8793.00,0.89
8792.00,0.89
8791.00,0.89
8790.00,0.89
8789.00,0.89
8788.00,0.89
8787.00,0.90
8786.00,0.90
8785.00,0.90
8784.00,0.90
8783.00,0.90
8782.00,0.90
8781.00,0.90
8780.00,0.90
8779.00,0.90
8778.00,0.90
8777.00,0.90
8776.00,0.90
8775.00,0.90
8774.00,0.90
8773.00,0.90
8772.00,0.90
8771.00,0.90
8770.00,0.90
8769.00,0.90
8768.00,0.90
8767.00,0.90
8766.00,0.90
8765.00,0.90
8764.00,0.90
8763.00,0.90
8762.00,0.90
8761.00,0.90
8760.00,0.90
8759.00,0.90
8758.00,0.90
8757.00,0.89
8756.00,0.89
8755.00,0.89
8754.00,0.89
8753.00,0.89
8752.00,0.89
8751.00,0.89
8750.00,0.89
8749.00,0.89
8748.00,0.89
8747.00,0.89
8746.00,0.89
8745.00,0.89
8744.00,0.89
8743.00,0.89
8742.00,0.89
8741.00,0.89
8740.00,0.89
8739.00,0.89
8738.00,0.89
8737.00,0.89
8736.00,0.89
8735.00,0.89
8734.00,0.88
8733.00,0.88
8732.00,0.88
8731.00,0.88
8730.00,0.88
8729.00,0.88
8728.00,0.88
8727.00,0.88
8726.00,0.88
8725.00,0.88
8724.00,0.88
8723.00,0.88
8722.00,0.88
8721.00,0.88
8720.00,0.88
8719.00,0.88
8718.00,0.88
8717.00,0.88
8716.00,0.88
8715.00,0.88
8714.00,0.88
8713.00,0.88
8712.00,0.87
8711.00,0.87
8710.00,0.87
8709.00,0.87
8708.00,0.87
8707.00,0.87
8706.00,0.87
8705.00,0.87
8704.00,0.87
8703.00,0.87
8702.00,0.87
8701.00,0.87
8700.00,0.87
8699.00,0.87
8698.00,0.87
8697.00,0.87
8696.00,0.87
8695.00,0.87
8694.00,0.87
8693.00,0.87
8692.00,0.88
8691.00,0.88
8690.00,0.88
8689.00,0.88
8688.00,0.88
8687.00,0.87
8686.00,0.87
8685.00,0.87
8684.00,0.87
8683.00,0.87
8682.00,0.87
8681.00,0.87
8680.00,0.87
8679.00,0.87
8678.00,0.87
8677.00,0.87
8676.00,0.87
8675.00,0.87
8674.00,0.87
8673.00,0.87
8672.00,0.87
8671.00,0.87
8670.00,0.87
8669.00,0.87
8668.00,0.87
8667.00,0.87
8666.00,0.87
8665.00,0.87
8664.00,0.87
8663.00,0.87
8662.00,0.87
8661.00,0.87
8660.00,0.87
8659.00,0.87
8658.00,0.87
8657.00,0.87
8656.00,0.87
8655.00,0.87
8654.00,0.87
8653.00,0.88
8652.00,0.88
8651.00,0.88
8650.00,0.88
8649.00,0.88
8648.00,0.88
8647.00,0.88
8646.00,0.88
8645.00,0.88
8644.00,0.88
8643.00,0.88
8642.00,0.88
8641.00,0.88
8640.00,0.88
8639.00,0.88
8638.00,0.88
8637.00,0.88
8636.00,0.88
8635.00,0.88
8634.00,0.88
8633.00,0.88
8632.00,0.88
8631.00,0.88
8630.00,0.88
8629.00,0.88
8628.00,0.88
8627.00,0.88
8626.00,0.88
8625.00,0.88
8624.00,0.88
8623.00,0.88
8622.00,0.88
8621.00,0.88
8620.00,0.88
8619.00,0.87
8618.00,0.87
8617.00,0.87
8616.00,0.87
8615.00,0.87
8614.00,0.87
8613.00,0.87
8612.00,0.86
8611.00,0.86
8610.00,0.86
8609.00,0.86
8608.00,0.86
8607.00,0.86
8606.00,0.86
8605.00,0.86
8604.00,0.86
8603.00,0.85
8602.00,0.85
8601.00,0.85
8600.00,0.86
8599.00,0.86
8598.00,0.86
8597.00,0.86
8596.00,0.86
8595.00,0.86
8594.00,0.86
8593.00,0.86
8592.00,0.86
8591.00,0.86
8590.00,0.86
8589.00,0.86
8588.00,0.86
8587.00,0.86
8586.00,0.86
8585.00,0.86
8584.00,0.86
8583.00,0.86
8582.00,0.86
8581.00,0.86
8580.00,0.86
8579.00,0.86
8578.00,0.86
8577.00,0.86
8576.00,0.86
8575.00,0.86
8574.00,0.86
8573.00,0.86
8572.00,0.86
8571.00,0.86
8570.00,0.86
8569.00,0.86
8568.00,0.86
8567.00,0.86
8566.00,0.86
8565.00,0.86
8564.00,0.86
8563.00,0.86
8562.00,0.86
8561.00,0.86
8560.00,0.85
8559.00,0.85
8558.00,0.85
8557.00,0.85
8556.00,0.85
8555.00,0.85
8554.00,0.85
8553.00,0.85
8552.00,0.85
8551.00,0.84
8550.00,0.84
8549.00,0.84
8548.00,0.84
8547.00,0.84
8546.00,0.84
8545.00,0.84
8544.00,0.83
8543.00,0.83
8542.00,0.83
8541.00,0.83
8540.00,0.83
8539.00,0.83
8538.00,0.83
8537.00,0.83
8536.00,0.83
8535.00,0.83
8534.00,0.83
8533.00,0.83
8532.00,0.83
8531.00,0.83
8530.00,0.83
8529.00,0.83
8528.00,0.83
8527.00,0.83
8526.00,0.83
8525.00,0.83
8524.00,0.83
8523.00,0.83
8522.00,0.83
8521.00,0.83
8520.00,0.83
8519.00,0.83
8518.00,0.83
8517.00,0.83
8516.00,0.83
8515.00,0.83
8514.00,0.83
8513.00,0.83
8512.00,0.83
8511.00,0.83
8510.00,0.83
8509.00,0.83
8508.00,0.83
8507.00,0.83
8506.00,0.83
8505.00,0.83
8504.00,0.83
8503.00,0.83
8502.00,0.83
8501.00,0.83
8500.00,0.83
8499.00,0.83
8498.00,0.83
8497.00,0.83
8496.00,0.83
8495.00,0.83
8494.00,0.83
8493.00,0.83
8492.00,0.83
8491.00,0.83
8490.00,0.83
8489.00,0.83
8488.00,0.84
8487.00,0.84
8486.00,0.84
8485.00,0.84
8484.00,0.84
8483.00,0.84
8482.00,0.84
8481.00,0.84
8480.00,0.84
8479.00,0.84
8478.00,0.84
8477.00,0.84
8476.00,0.84
8475.00,0.84
8474.00,0.84
8473.00,0.84
8472.00,0.84
8471.00,0.84
8470.00,0.84
8469.00,0.83
8468.00,0.83
8467.00,0.83
8466.00,0.83
8465.00,0.83
8464.00,0.83
8463.00,0.82
8462.00,0.82
8461.00,0.82
8460.00,0.82
8459.00,0.82
8458.00,0.82
8457.00,0.82
8456.00,0.82
8455.00,0.82
8454.00,0.82
8453.00,0.82
8452.00,0.82
8451.00,0.82
8450.00,0.82
8449.00,0.82
8448.00,0.82
8447.00,0.82
8446.00,0.83
8445.00,0.83
8444.00,0.83
8443.00,0.83
8442.00,0.83
8441.00,0.83
8440.00,0.83
8439.00,0.83
8438.00,0.83
8437.00,0.83
8436.00,0.83
8435.00,0.83
8434.00,0.83
8433.00,0.83
8432.00,0.83
8431.00,0.83
8430.00,0.83
8429.00,0.83
8428.00,0.83
8427.00,0.83
8426.00,0.83
8425.00,0.83
8424.00,0.84
8423.00,0.84
8422.00,0.84
8421.00,0.84
8420.00,0.84
8419.00,0.84
8418.00,0.84
8417.00,0.84
8416.00,0.84
8415.00,0.84
8414.00,0.83
8413.00,0.83
8412.00,0.83
8411.00,0.83
8410.00,0.83
8409.00,0.83
8408.00,0.83
8407.00,0.83
8406.00,0.83
8405.00,0.83
8404.00,0.83
8403.00,0.83
8402.00,0.83
8401.00,0.83
8400.00,0.83
8399.00,0.83
8398.00,0.83
8397.00,0.83
8396.00,0.83
8395.00,0.83
8394.00,0.83
8393.00,0.83
8392.00,0.83
8391.00,0.83
8390.00,0.83
8389.00,0.83
8388.00,0.83
8387.00,0.83
8386.00,0.83
8385.00,0.83
8384.00,0.83
8383.00,0.83
8382.00,0.83
8381.00,0.83
8380.00,0.83
8379.00,0.83
8378.00,0.83
8377.00,0.83
8376.00,0.83
8375.00,0.83
8374.00,0.83
8373.00,0.83
8372.00,0.84
8371.00,0.84
8370.00,0.84
8369.00,0.84
8368.00,0.84
8367.00,0.84
8366.00,0.84
8365.00,0.84
8364.00,0.84
8363.00,0.84
8362.00,0.84
8361.00,0.85
8360.00,0.85
8359.00,0.85
8358.00,0.85
8357.00,0.85
8356.00,0.85
8355.00,0.85
8354.00,0.85
8353.00,0.85
8352.00,0.85
8351.00,0.85
8350.00,0.85
8349.00,0.85
8348.00,0.85
8347.00,0.85
8346.00,0.85
8345.00,0.85
8344.00,0.85
8343.00,0.85
8342.00,0.85
8341.00,0.85
8340.00,0.85
8339.00,0.85
8338.00,0.85
8337.00,0.85
8336.00,0.85
8335.00,0.85
8334.00,0.85
8333.00,0.85
8332.00,0.85
8331.00,0.85
8330.00,0.85
8329.00,0.85
8328.00,0.85
8327.00,0.85
8326.00,0.85
8325.00,0.85
8324.00,0.85
8323.00,0.85
8322.00,0.85
8321.00,0.85
8320.00,0.85
8319.00,0.85
8318.00,0.85
8317.00,0.85
8316.00,0.85
8315.00,0.85
8314.00,0.85
8313.00,0.85
8312.00,0.85
8311.00,0.85
8310.00,0.85
8309.00,0.85
8308.00,0.85
8307.00,0.85
8306.00,0.85
8305.00,0.85
8304.00,0.85
8303.00,0.85
8302.00,0.85
8301.00,0.85
8300.00,0.84
8299.00,0.84
8298.00,0.84
8297.00,0.84
8296.00,0.84
8295.00,0.84
8294.00,0.84
8293.00,0.84
8292.00,0.84
8291.00,0.84
8290.00,0.84
8289.00,0.84
8288.00,0.84
8287.00,0.84
8286.00,0.84
8285.00,0.84
8284.00,0.84
8283.00,0.84
8282.00,0.84
8281.00,0.85
8280.00,0.85
8279.00,0.85
8278.00,0.85
8277.00,0.85
8276.00,0.85
8275.00,0.85
8274.00,0.86
8273.00,0.86
8272.00,0.86
8271.00,0.86
8270.00,0.86
8269.00,0.86
8268.00,0.86
8267.00,0.86
8266.00,0.86
8265.00,0.86
8264.00,0.86
8263.00,0.86
8262.00,0.86
8261.00,0.86
8260.00,0.86
8259.00,0.86
8258.00,0.86
8257.00,0.86
8256.00,0.86
8255.00,0.86
8254.00,0.86
8253.00,0.85
8252.00,0.85
8251.00,0.85
8250.00,0.85
8249.00,0.86
8248.00,0.86
8247.00,0.86
8246.00,0.86
8245.00,0.86
8244.00,0.86
8243.00,0.86
8242.00,0.86
8241.00,0.86
8240.00,0.86
8239.00,0.86
8238.00,0.86
8237.00,0.87
8236.00,0.87
8235.00,0.87
8234.00,0.87
8233.00,0.87
8232.00,0.87
8231.00,0.87
8230.00,0.87
8229.00,0.87
8228.00,0.87
8227.00,0.87
8226.00,0.87
8225.00,0.87
8224.00,0.87
8223.00,0.87
8222.00,0.87
8221.00,0.87
8220.00,0.87
8219.00,0.87
8218.00,0.87
8217.00,0.87
8216.00,0.87
8215.00,0.86
8214.00,0.86
8213.00,0.86
8212.00,0.86
8211.00,0.86
8210.00,0.86
8209.00,0.86
8208.00,0.86
8207.00,0.86
8206.00,0.86
8205.00,0.86
8204.00,0.86
8203.00,0.86
8202.00,0.86
8201.00,0.86
8200.00,0.87
8199.00,0.87
8198.00,0.87
8197.00,0.87
8196.00,0.87
8195.00,0.87
8194.00,0.87
8193.00,0.87
8192.00,0.87
8191.00,0.87
8190.00,0.87
8189.00,0.87
8188.00,0.87
8187.00,0.87
8186.00,0.87
8185.00,0.87
8184.00,0.87
8183.00,0.87
8182.00,0.87
8181.00,0.87
8180.00,0.87
8179.00,0.87
8178.00,0.87
8177.00,0.87
8176.00,0.87
8175.00,0.87
8174.00,0.87
8173.00,0.87
8172.00,0.87
8171.00,0.87
8170.00,0.87
8169.00,0.87
8168.00,0.87
8167.00,0.87
8166.00,0.87
8165.00,0.87
8164.00,0.88
8163.00,0.88
8162.00,0.88
8161.00,0.88
8160.00,0.88
8159.00,0.88
8158.00,0.88
8157.00,0.88
8156.00,0.88
8155.00,0.89
8154.00,0.89
8153.00,0.89
8152.00,0.89
8151.00,0.89
8150.00,0.89
8149.00,0.89
8148.00,0.89
8147.00,0.89
8146.00,0.89
8145.00,0.89
8144.00,0.89
8143.00,0.89
8142.00,0.89
8141.00,0.89
8140.00,0.89
8139.00,0.89
8138.00,0.89
8137.00,0.89
8136.00,0.89
8135.00,0.89
8134.00,0.89
8133.00,0.89
8132.00,0.89
8131.00,0.89
8130.00,0.88
8129.00,0.88
8128.00,0.88
8127.00,0.88
8126.00,0.88
8125.00,0.88
8124.00,0.88
8123.00,0.88
8122.00,0.88
8121.00,0.88
8120.00,0.88
8119.00,0.88
8118.00,0.88
8117.00,0.88
8116.00,0.88
8115.00,0.88
8114.00,0.88
8113.00,0.88
8112.00,0.88
8111.00,0.88
8110.00,0.88
8109.00,0.88
8108.00,0.88
8107.00,0.88
8106.00,0.88
8105.00,0.88
8104.00,0.88
8103.00,0.88
8102.00,0.88
8101.00,0.88
8100.00,0.88
8099.00,0.88
8098.00,0.88
8097.00,0.89
8096.00,0.89
8095.00,0.89
8094.00,0.89
8093.00,0.89
8092.00,0.89
8091.00,0.89
8090.00,0.89
8089.00,0.89
8088.00,0.89
8087.00,0.89
8086.00,0.89
8085.00,0.89
8084.00,0.89
8083.00,0.89
8082.00,0.89
8081.00,0.89
8080.00,0.89
8079.00,0.89
8078.00,0.89
8077.00,0.89
8076.00,0.89
8075.00,0.89
8074.00,0.89
8073.00,0.89
8072.00,0.89
8071.00,0.89
8070.00,0.89
8069.00,0.89
8068.00,0.89
8067.00,0.89
8066.00,0.89
8065.00,0.89
8064.00,0.89
8063.00,0.89
8062.00,0.89
8061.00,0.89
8060.00,0.90
8059.00,0.90
8058.00,0.90
8057.00,0.90
8056.00,0.90
8055.00,0.90
8054.00,0.90
8053.00,0.90
8052.00,0.90
8051.00,0.90
8050.00,0.90
8049.00,0.90
8048.00,0.90
8047.00,0.90
8046.00,0.90
8045.00,0.90
8044.00,0.90
8043.00,0.90
8042.00,0.90
8041.00,0.90
8040.00,0.90
8039.00,0.90
8038.00,0.90
8037.00,0.90
8036.00,0.90
8035.00,0.90
8034.00,0.90
8033.00,0.90
8032.00,0.90
8031.00,0.90
8030.00,0.90
8029.00,0.90
8028.00,0.90
8027.00,0.90
8026.00,0.90
8025.00,0.90
8024.00,0.90
8023.00,0.90
8022.00,0.90
8021.00,0.90
8020.00,0.90
8019.00,0.90
8018.00,0.90
8017.00,0.90
8016.00,0.90
8015.00,0.90
8014.00,0.90
8013.00,0.90
8012.00,0.90
8011.00,0.89
8010.00,0.89
8009.00,0.89
8008.00,0.89
8007.00,0.89
8006.00,0.89
8005.00,0.89
8004.00,0.89
8003.00,0.89
8002.00,0.89
8001.00,0.89
8000.00,0.89
7999.00,0.89
7998.00,0.90
7997.00,0.90
7996.00,0.90
7995.00,0.90
7994.00,0.90
7993.00,0.90
7992.00,0.90
7991.00,0.91
7990.00,0.91
7989.00,0.91
7988.00,0.91
7987.00,0.91
7986.00,0.91
7985.00,0.91
7984.00,0.91
7983.00,0.91
7982.00,0.91
7981.00,0.91
7980.00,0.91
7979.00,0.91
7978.00,0.91
7977.00,0.91
7976.00,0.91
7975.00,0.91
7974.00,0.91
7973.00,0.91
7972.00,0.91
7971.00,0.90
7970.00,0.90
7969.00,0.90
7968.00,0.90
7967.00,0.90
7966.00,0.90
7965.00,0.90
7964.00,0.90
7963.00,0.90
7962.00,0.90
7961.00,0.90
7960.00,0.90
7959.00,0.90
7958.00,0.90
7957.00,0.90
7956.00,0.90
7955.00,0.90
7954.00,0.91
7953.00,0.91
7952.00,0.91
7951.00,0.91
7950.00,0.91
7949.00,0.91
7948.00,0.91
7947.00,0.91
7946.00,0.91
7945.00,0.91
7944.00,0.91
7943.00,0.91
7942.00,0.91
7941.00,0.91
7940.00,0.91
7939.00,0.91
7938.00,0.91
7937.00,0.91
7936.00,0.91
7935.00,0.91
7934.00,0.91
7933.00,0.91
7932.00,0.91
7931.00,0.91
7930.00,0.91
7929.00,0.91
7928.00,0.91
7927.00,0.91
7926.00,0.91
7925.00,0.91
7924.00,0.91
7923.00,0.91
7922.00,0.91
7921.00,0.91
7920.00,0.91
7919.00,0.91
7918.00,0.91
7917.00,0.91
7916.00,0.91
7915.00,0.91
7914.00,0.91
7913.00,0.91
7912.00,0.91
7911.00,0.91
7910.00,0.91
7909.00,0.91
7908.00,0.91
7907.00,0.91
7906.00,0.91
7905.00,0.91
7904.00,0.91
7903.00,0.91
7902.00,0.91
7901.00,0.91
7900.00,0.91
7899.00,0.91
7898.00,0.91
7897.00,0.91
7896.00,0.91
7895.00,0.91
7894.00,0.91
7893.00,0.91
7892.00,0.91
7891.00,0.91
7890.00,0.91
7889.00,0.91
7888.00,0.91
7887.00,0.91
7886.00,0.91
7885.00,0.91
7884.00,0.91
7883.00,0.91
7882.00,0.91
7881.00,0.91
7880.00,0.91
7879.00,0.91
7878.00,0.91
7877.00,0.91
7876.00,0.91
7875.00,0.91
7874.00,0.91
7873.00,0.91
7872.00,0.91
7871.00,0.91
7870.00,0.91
7869.00,0.91
7868.00,0.91
7867.00,0.91
7866.00,0.91
7865.00,0.91
7864.00,0.91
7863.00,0.91
7862.00,0.91
7861.00,0.91
7860.00,0.91
7859.00,0.91
7858.00,0.91
7857.00,0.91
7856.00,0.91
7855.00,0.91
7854.00,0.91
7853.00,0.91
7852.00,0.91
7851.00,0.92
7850.00,0.92
7849.00,0.92
7848.00,0.92
7847.00,0.92
7846.00,0.92
7845.00,0.92
7844.00,0.92
7843.00,0.92
7842.00,0.92
7841.00,0.92
7840.00,0.92
7839.00,0.91
7838.00,0.91
7837.00,0.92
7836.00,0.92
7835.00,0.92
7834.00,0.92
7833.00,0.92
7832.00,0.92
7831.00,0.92
7830.00,0.92
7829.00,0.92
7828.00,0.92
7827.00,0.92
7826.00,0.92
7825.00,0.92
7824.00,0.92
7823.00,0.92
7822.00,0.92
7821.00,0.92
7820.00,0.92
7819.00,0.92
7818.00,0.92
7817.00,0.92
7816.00,0.92
7815.00,0.92
7814.00,0.92
7813.00,0.92
7812.00,0.92
7811.00,0.92
7810.00,0.92
7809.00,0.92
7808.00,0.92
7807.00,0.92
7806.00,0.92
7805.00,0.92
7804.00,0.92
7803.00,0.92
7802.00,0.92
7801.00,0.92
7800.00,0.92
7799.00,0.92
7798.00,0.92
7797.00,0.92
7796.00,0.92
7795.00,0.92
7794.00,0.92
7793.00,0.92
7792.00,0.92
7791.00,0.92
7790.00,0.92
7789.00,0.92
7788.00,0.93
7787.00,0.93
7786.00,0.93
7785.00,0.93
7784.00,0.93
7783.00,0.93
7782.00,0.93
7781.00,0.93
7780.00,0.93
7779.00,0.93
7778.00,0.93
7777.00,0.93
7776.00,0.93
7775.00,0.93
7774.00,0.93
7773.00,0.93
7772.00,0.93
7771.00,0.93
7770.00,0.92
7769.00,0.92
7768.00,0.92
7767.00,0.92
7766.00,0.92
7765.00,0.92
7764.00,0.92
7763.00,0.92
7762.00,0.92
7761.00,0.92
7760.00,0.92
7759.00,0.92
7758.00,0.92
7757.00,0.92
7756.00,0.92
7755.00,0.92
7754.00,0.92
7753.00,0.92
7752.00,0.92
7751.00,0.92
7750.00,0.92
7749.00,0.92
7748.00,0.92
7747.00,0.92
7746.00,0.92
7745.00,0.92
7744.00,0.92
7743.00,0.92
7742.00,0.92
7741.00,0.92
7740.00,0.92
7739.00,0.92
7738.00,0.92
7737.00,0.92
7736.00,0.92
7735.00,0.92
7734.00,0.92
7733.00,0.92
7732.00,0.92
7731.00,0.92
7730.00,0.92
7729.00,0.92
7728.00,0.92
7727.00,0.92
7726.00,0.92
7725.00,0.92
7724.00,0.92
7723.00,0.92
7722.00,0.92
7721.00,0.92
7720.00,0.92
7719.00,0.92
7718.00,0.92
7717.00,0.93
7716.00,0.93
7715.00,0.93
7714.00,0.93
7713.00,0.93
7712.00,0.93
7711.00,0.93
7710.00,0.93
7709.00,0.93
7708.00,0.93
7707.00,0.93
7706.00,0.93
7705.00,0.92
7704.00,0.92
7703.00,0.92
7702.00,0.92
7701.00,0.92
7700.00,0.92
7699.00,0.92
7698.00,0.92
7697.00,0.93
7696.00,0.93
7695.00,0.93
7694.00,0.93
7693.00,0.93
7692.00,0.93
7691.00,0.93
7690.00,0.93
7689.00,0.93
7688.00,0.93
7687.00,0.93
7686.00,0.93
7685.00,0.93
7684.00,0.93
7683.00,0.92
7682.00,0.92
7681.00,0.92
7680.00,0.92
7679.00,0.92
7678.00,0.92
7677.00,0.92
7676.00,0.92
7675.00,0.92
7674.00,0.92
7673.00,0.92
7672.00,0.93
7671.00,0.93
7670.00,0.93
7669.00,0.93
7668.00,0.93
7667.00,0.93
7666.00,0.93
7665.00,0.93
7664.00,0.93
7663.00,0.93
7662.00,0.93
7661.00,0.93
7660.00,0.93
7659.00,0.93
7658.00,0.93
7657.00,0.93
7656.00,0.93
7655.00,0.93
7654.00,0.93
7653.00,0.93
7652.00,0.93
7651.00,0.93
7650.00,0.93
7649.00,0.93
7648.00,0.93
7647.00,0.93
7646.00,0.93
7645.00,0.93
7644.00,0.93
7643.00,0.93
7642.00,0.93
7641.00,0.93
7640.00,0.93
7639.00,0.93
7638.00,0.93
7637.00,0.93
7636.00,0.93
7635.00,0.93
7634.00,0.93
7633.00,0.93
7632.00,0.93
7631.00,0.93
7630.00,0.93
7629.00,0.93
7628.00,0.93
7627.00,0.93
7626.00,0.92
7625.00,0.92
7624.00,0.92
7623.00,0.92
7622.00,0.92
7621.00,0.92
7620.00,0.92
7619.00,0.92
7618.00,0.92
7617.00,0.92
7616.00,0.92
7615.00,0.92
7614.00,0.92
7613.00,0.92
7612.00,0.92
7611.00,0.92
7610.00,0.92
7609.00,0.92
7608.00,0.92
7607.00,0.92
7606.00,0.92
7605.00,0.92
7604.00,0.92
7603.00,0.92
7602.00,0.92
7601.00,0.92
7600.00,0.92
7599.00,0.92
7598.00,0.92
7597.00,0.92
7596.00,0.92
7595.00,0.92
7594.00,0.92
7593.00,0.92
7592.00,0.92
7591.00,0.92
7590.00,0.92
7589.00,0.92
7588.00,0.92
7587.00,0.92
7586.00,0.92
7585.00,0.92
7584.00,0.92
7583.00,0.92
7582.00,0.92
7581.00,0.92
7580.00,0.93
7579.00,0.93
7578.00,0.93
7577.00,0.93
7576.00,0.93
7575.00,0.93
7574.00,0.93
7573.00,0.93
7572.00,0.93
7571.00,0.93
7570.00,0.92
7569.00,0.92
7568.00,0.92
7567.00,0.92
7566.00,0.92
7565.00,0.92
7564.00,0.92
7563.00,0.92
7562.00,0.92
7561.00,0.92
7560.00,0.92
7559.00,0.92
7558.00,0.92
7557.00,0.92
7556.00,0.92
7555.00,0.92
7554.00,0.92
7553.00,0.92
7552.00,0.92
7551.00,0.92
7550.00,0.92
7549.00,0.92
7548.00,0.92
7547.00,0.92
7546.00,0.92
7545.00,0.93
7544.00,0.93
7543.00,0.93
7542.00,0.93
7541.00,0.93
7540.00,0.93
7539.00,0.92
7538.00,0.92
7537.00,0.92
7536.00,0.92
7535.00,0.92
7534.00,0.92
7533.00,0.92
7532.00,0.92
7531.00,0.92
7530.00,0.92
7529.00,0.92
7528.00,0.92
7527.00,0.92
7526.00,0.91
7525.00,0.91
7524.00,0.91
7523.00,0.91
7522.00,0.91
7521.00,0.91
7520.00,0.91
7519.00,0.91
7518.00,0.91
7517.00,0.91
7516.00,0.91
7515.00,0.91
7514.00,0.91
7513.00,0.91
7512.00,0.91
7511.00,0.91
7510.00,0.91
7509.00,0.91
7508.00,0.91
7507.00,0.91
7506.00,0.91
7505.00,0.91
7504.00,0.91
7503.00,0.91
7502.00,0.91
7501.00,0.91
7500.00,0.91
7499.00,0.91
7498.00,0.91
7497.00,0.91
7496.00,0.91
7495.00,0.91
7494.00,0.91
7493.00,0.90
7492.00,0.90
7491.00,0.90
7490.00,0.90
7489.00,0.90
7488.00,0.90
7487.00,0.90
7486.00,0.90
7485.00,0.90
7484.00,0.90
7483.00,0.90
7482.00,0.90
7481.00,0.90
7480.00,0.90
7479.00,0.90
7478.00,0.90
7477.00,0.90
7476.00,0.90
7475.00,0.90
7474.00,0.90
7473.00,0.90
7472.00,0.90
7471.00,0.90
7470.00,0.89
7469.00,0.89
7468.00,0.89
7467.00,0.89
7466.00,0.89
7465.00,0.89
7464.00,0.89
7463.00,0.89
7462.00,0.89
7461.00,0.89
7460.00,0.89
7459.00,0.89
7458.00,0.89
7457.00,0.89
7456.00,0.89
7455.00,0.89
7454.00,0.89
7453.00,0.89
7452.00,0.89
7451.00,0.89
7450.00,0.89
7449.00,0.89
7448.00,0.89
7447.00,0.89
7446.00,0.89
7445.00,0.89
7444.00,0.89
7443.00,0.89
7442.00,0.89
7441.00,0.89
7440.00,0.88
7439.00,0.88
7438.00,0.88
7437.00,0.88
7436.00,0.88
7435.00,0.88
7434.00,0.88
7433.00,0.88
7432.00,0.88
7431.00,0.88
7430.00,0.88
7429.00,0.88
7428.00,0.88
7427.00,0.88
7426.00,0.88
7425.00,0.88
7424.00,0.88
7423.00,0.88
7422.00,0.88
7421.00,0.88
7420.00,0.88
7419.00,0.88
7418.00,0.88
7417.00,0.88
7416.00,0.88
7415.00,0.88
7414.00,0.88
7413.00,0.88
7412.00,0.88
7411.00,0.88
7410.00,0.87
7409.00,0.87
7408.00,0.87
7407.00,0.87
7406.00,0.87
7405.00,0.87
7404.00,0.87
7403.00,0.87
7402.00,0.87
7401.00,0.87
7400.00,0.87
7399.00,0.86
7398.00,0.86
7397.00,0.86
7396.00,0.86
7395.00,0.86
7394.00,0.86
7393.00,0.85
7392.00,0.85
7391.00,0.85
7390.00,0.85
7389.00,0.85
7388.00,0.85
7387.00,0.85
7386.00,0.85
7385.00,0.85
7384.00,0.85
7383.00,0.84
7382.00,0.84
7381.00,0.84
7380.00,0.84
7379.00,0.84
7378.00,0.84
7377.00,0.85
7376.00,0.85
7375.00,0.85
7374.00,0.85
7373.00,0.85
7372.00,0.85
7371.00,0.85
7370.00,0.85
7369.00,0.85
7368.00,0.85
7367.00,0.85
7366.00,0.85
7365.00,0.85
7364.00,0.85
7363.00,0.85
7362.00,0.85
7361.00,0.85
7360.00,0.85
7359.00,0.85
7358.00,0.85
7357.00,0.85
7356.00,0.85
7355.00,0.85
7354.00,0.85
7353.00,0.85
7352.00,0.85
7351.00,0.85
7350.00,0.85
7349.00,0.85
7348.00,0.85
7347.00,0.85
7346.00,0.85
7345.00,0.85
7344.00,0.85
7343.00,0.85
7342.00,0.85
7341.00,0.85
7340.00,0.85
7339.00,0.85
7338.00,0.85
7337.00,0.85
7336.00,0.85
7335.00,0.85
7334.00,0.85
7333.00,0.85
7332.00,0.85
7331.00,0.85
7330.00,0.85
7329.00,0.85
7328.00,0.85
7327.00,0.85
7326.00,0.85
7325.00,0.84
7324.00,0.84
7323.00,0.84
7322.00,0.84
7321.00,0.84
7320.00,0.84
7319.00,0.84
7318.00,0.84
7317.00,0.84
7316.00,0.84
7315.00,0.84
7314.00,0.84
7313.00,0.84
7312.00,0.84
7311.00,0.84
7310.00,0.84
7309.00,0.84
7308.00,0.84
7307.00,0.84
7306.00,0.84
7305.00,0.84
7304.00,0.84
7303.00,0.84
7302.00,0.84
7301.00,0.84
7300.00,0.84
7299.00,0.84
7298.00,0.84
7297.00,0.84
7296.00,0.84
7295.00,0.83
7294.00,0.83
7293.00,0.83
7292.00,0.83
7291.00,0.83
7290.00,0.83
7289.00,0.83
7288.00,0.83
7287.00,0.82
7286.00,0.82
7285.00,0.82
7284.00,0.82
7283.00,0.82
7282.00,0.82
7281.00,0.82
7280.00,0.82
7279.00,0.82
7278.00,0.82
7277.00,0.81
7276.00,0.81
7275.00,0.81
7274.00,0.81
7273.00,0.81
7272.00,0.81
7271.00,0.81
7270.00,0.81
7269.00,0.81
7268.00,0.81
7267.00,0.81
7266.00,0.80
7265.00,0.80
7264.00,0.80
7263.00,0.80
7262.00,0.80
7261.00,0.80
7260.00,0.80
7259.00,0.80
7258.00,0.80
7257.00,0.80
7256.00,0.80
7255.00,0.80
7254.00,0.79
7253.00,0.79
7252.00,0.79
7251.00,0.79
7250.00,0.79
7249.00,0.79
7248.00,0.79
7247.00,0.78
7246.00,0.78
7245.00,0.78
7244.00,0.78
7243.00,0.78
7242.00,0.78
7241.00,0.78
7240.00,0.77
7239.00,0.77
7238.00,0.77
7237.00,0.77
7236.00,0.77
7235.00,0.76
7234.00,0.76
7233.00,0.76
7232.00,0.76
7231.00,0.75
7230.00,0.75
7229.00,0.75
7228.00,0.75
7227.00,0.74
7226.00,0.74
7225.00,0.74
7224.00,0.73
7223.00,0.73
7222.00,0.73
7221.00,0.72
7220.00,0.72
7219.00,0.72
7218.00,0.72
7217.00,0.71
7216.00,0.71
7215.00,0.71
7214.00,0.71
7213.00,0.70
7212.00,0.70
7211.00,0.70
7210.00,0.70
7209.00,0.70
7208.00,0.69
7207.00,0.69
7206.00,0.69
7205.00,0.69
7204.00,0.68
7203.00,0.68
7202.00,0.68
7201.00,0.68
7200.00,0.68
7199.00,0.68
7198.00,0.67
7197.00,0.67
7196.00,0.67
7195.00,0.67
7194.00,0.67
7193.00,0.66
7192.00,0.66
7191.00,0.66
7190.00,0.66
7189.00,0.65
7188.00,0.65
7187.00,0.65
7186.00,0.65
7185.00,0.64
7184.00,0.64
7183.00,0.64
7182.00,0.64
7181.00,0.63
7180.00,0.63
7179.00,0.63
7178.00,0.63
7177.00,0.63
7176.00,0.63
7175.00,0.62
7174.00,0.62
7173.00,0.62
7172.00,0.62
7171.00,0.62
7170.00,0.61
7169.00,0.61
7168.00,0.61
7167.00,0.61
7166.00,0.60
7165.00,0.60
7164.00,0.60
7163.00,0.60
7162.00,0.59
7161.00,0.59
7160.00,0.59
7159.00,0.59
7158.00,0.58
7157.00,0.58
7156.00,0.58
7155.00,0.58
7154.00,0.57
7153.00,0.57
7152.00,0.57
7151.00,0.57
7150.00,0.56
7149.00,0.56
7148.00,0.56
7147.00,0.56
7146.00,0.55
7145.00,0.55
7144.00,0.55
7143.00,0.55
7142.00,0.54
7141.00,0.54
7140.00,0.54
7139.00,0.54
7138.00,0.54
7137.00,0.53
7136.00,0.53
7135.00,0.53
7134.00,0.53
7133.00,0.53
7132.00,0.52
7131.00,0.52
7130.00,0.52
7129.00,0.52
7128.00,0.52
7127.00,0.52
7126.00,0.51
7125.00,0.51
7124.00,0.51
7123.00,0.51
7122.00,0.51
7121.00,0.51
7120.00,0.51
7119.00,0.50
7118.00,0.50
7117.00,0.50
7116.00,0.50
7115.00,0.50
7114.00,0.49
7113.00,0.49
7112.00,0.49
7111.00,0.49
7110.00,0.49
7109.00,0.49
7108.00,0.48
7107.00,0.48
7106.00,0.48
7105.00,0.48
7104.00,0.48
7103.00,0.48
7102.00,0.48
7101.00,0.47
7100.00,0.47
7099.00,0.47
7098.00,0.47
7097.00,0.47
7096.00,0.47
7095.00,0.47
7094.00,0.47
7093.00,0.46
7092.00,0.46
7091.00,0.46
7090.00,0.46
7089.00,0.46
7088.00,0.46
7087.00,0.46
7086.00,0.46
7085.00,0.46
7084.00,0.46
7083.00,0.46
7082.00,0.46
7081.00,0.46
7080.00,0.46
7079.00,0.45
7078.00,0.45
7077.00,0.45
7076.00,0.45
7075.00,0.45
7074.00,0.45
7073.00,0.45
7072.00,0.45
7071.00,0.45
7070.00,0.45
7069.00,0.44
7068.00,0.44
7067.00,0.44
7066.00,0.44
7065.00,0.44
7064.00,0.44
7063.00,0.43
7062.00,0.43
7061.00,0.43
7060.00,0.43
7059.00,0.43
7058.00,0.43
7057.00,0.42
7056.00,0.42
7055.00,0.42
7054.00,0.42
7053.00,0.42
7052.00,0.42
7051.00,0.42
7050.00,0.42
7049.00,0.42
7048.00,0.42
7047.00,0.42
7046.00,0.42
7045.00,0.42
7044.00,0.41
7043.00,0.41
7042.00,0.41
7041.00,0.41
7040.00,0.41
7039.00,0.41
7038.00,0.41
7037.00,0.41
7036.00,0.41
7035.00,0.41
7034.00,0.41
7033.00,0.41
7032.00,0.41
7031.00,0.41
7030.00,0.41
7029.00,0.41
7028.00,0.41
7027.00,0.41
7026.00,0.41
7025.00,0.41
7024.00,0.41
7023.00,0.41
7022.00,0.40
7021.00,0.40
7020.00,0.40
7019.00,0.40
7018.00,0.40
7017.00,0.40
7016.00,0.40
7015.00,0.40
7014.00,0.40
7013.00,0.40
7012.00,0.40
7011.00,0.40
7010.00,0.40
7009.00,0.40
7008.00,0.39
7007.00,0.39
7006.00,0.39
7005.00,0.39
7004.00,0.39
7003.00,0.39
7002.00,0.39
7001.00,0.39
7000.00,0.39
6999.00,0.39
6998.00,0.39
6997.00,0.39
6996.00,0.39
6995.00,0.39
6994.00,0.39
6993.00,0.39
6992.00,0.39
6991.00,0.39
6990.00,0.39
6989.00,0.39
6988.00,0.39
6987.00,0.39
6986.00,0.39
6985.00,0.39
6984.00,0.39
6983.00,0.39
6982.00,0.39
6981.00,0.39
6980.00,0.39
6979.00,0.39
6978.00,0.39
6977.00,0.39
6976.00,0.39
6975.00,0.39
6974.00,0.39
6973.00,0.39
6972.00,0.38
6971.00,0.38
6970.00,0.38
6969.00,0.38
6968.00,0.38
6967.00,0.38
6966.00,0.38
6965.00,0.39
6964.00,0.39
6963.00,0.39
6962.00,0.39
6961.00,0.38
6960.00,0.38
6959.00,0.38
6958.00,0.38
6957.00,0.38
6956.00,0.38
6955.00,0.38
6954.00,0.38
6953.00,0.38
6952.00,0.38
6951.00,0.38
6950.00,0.38
6949.00,0.38
6948.00,0.38
6947.00,0.38
6946.00,0.38
6945.00,0.38
6944.00,0.37
6943.00,0.37
6942.00,0.37
6941.00,0.37
6940.00,0.37
6939.00,0.37
6938.00,0.37
6937.00,0.37
6936.00,0.37
6935.00,0.37
6934.00,0.37
6933.00,0.37
6932.00,0.37
6931.00,0.37
6930.00,0.37
6929.00,0.37
6928.00,0.37
6927.00,0.37
6926.00,0.37
6925.00,0.37
6924.00,0.37
6923.00,0.37
6922.00,0.37
6921.00,0.37
6920.00,0.37
6919.00,0.37
6918.00,0.37
6917.00,0.37
6916.00,0.37
6915.00,0.37
6914.00,0.37
6913.00,0.37
6912.00,0.37
6911.00,0.37
6910.00,0.37
6909.00,0.37
6908.00,0.37
6907.00,0.36
6906.00,0.36
6905.00,0.37
6904.00,0.37
6903.00,0.37
6902.00,0.37
6901.00,0.37
6900.00,0.37
6899.00,0.37
6898.00,0.37
6897.00,0.37
6896.00,0.37
6895.00,0.37
6894.00,0.37
6893.00,0.37
6892.00,0.37
6891.00,0.37
6890.00,0.37
6889.00,0.37
6888.00,0.37
6887.00,0.37
6886.00,0.37
6885.00,0.37
6884.00,0.37
6883.00,0.37
6882.00,0.37
6881.00,0.37
6880.00,0.37
6879.00,0.37
6878.00,0.37
6877.00,0.37
6876.00,0.37
6875.00,0.37
6874.00,0.37
6873.00,0.37
6872.00,0.37
6871.00,0.37
6870.00,0.37
6869.00,0.37
6868.00,0.37
6867.00,0.37
6866.00,0.37
6865.00,0.37
6864.00,0.37
6863.00,0.37
6862.00,0.37
6861.00,0.37
6860.00,0.37
6859.00,0.37
6858.00,0.37
6857.00,0.37
6856.00,0.37
6855.00,0.37
6854.00,0.37
6853.00,0.37
6852.00,0.37
6851.00,0.37
6850.00,0.37
6849.00,0.37
6848.00,0.37
6847.00,0.37
6846.00,0.37
6845.00,0.37
6844.00,0.37
6843.00,0.37
6842.00,0.37
6841.00,0.37
6840.00,0.37
6839.00,0.37
6838.00,0.37
6837.00,0.37
6836.00,0.37
6835.00,0.37
6834.00,0.37
6833.00,0.37
6832.00,0.37
6831.00,0.37
6830.00,0.37
6829.00,0.37
6828.00,0.38
6827.00,0.38
6826.00,0.38
6825.00,0.38
6824.00,0.38
6823.00,0.38
6822.00,0.38
6821.00,0.38
6820.00,0.38
6819.00,0.38
6818.00,0.38
6817.00,0.38
6816.00,0.38
6815.00,0.38
6814.00,0.38
6813.00,0.38
6812.00,0.38
6811.00,0.38
6810.00,0.38
6809.00,0.38
6808.00,0.38
6807.00,0.38
6806.00,0.38
6805.00,0.38
6804.00,0.38
6803.00,0.38
6802.00,0.38
6801.00,0.38
6800.00,0.38
6799.00,0.38
6798.00,0.38
6797.00,0.38
6796.00,0.38
6795.00,0.38
6794.00,0.38
6793.00,0.38
6792.00,0.38
6791.00,0.38
6790.00,0.38
6789.00,0.38
6788.00,0.39
6787.00,0.39
6786.00,0.39
6785.00,0.39
6784.00,0.39
6783.00,0.39
6782.00,0.39
6781.00,0.39
6780.00,0.39
6779.00,0.39
6778.00,0.39
6777.00,0.39
6776.00,0.39
6775.00,0.39
6774.00,0.39
6773.00,0.39
6772.00,0.39
6771.00,0.39
6770.00,0.39
6769.00,0.39
6768.00,0.39
6767.00,0.39
6766.00,0.39
6765.00,0.39
6764.00,0.39
6763.00,0.39
6762.00,0.39
6761.00,0.39
6760.00,0.39
6759.00,0.39
6758.00,0.39
6757.00,0.39
6756.00,0.39
6755.00,0.39
6754.00,0.40
6753.00,0.40
6752.00,0.40
6751.00,0.40
6750.00,0.40
6749.00,0.40
6748.00,0.40
6747.00,0.40
6746.00,0.40
6745.00,0.40
6744.00,0.40
6743.00,0.41
6742.00,0.41
6741.00,0.41
6740.00,0.41
6739.00,0.41
6738.00,0.41
6737.00,0.41
6736.00,0.41
6735.00,0.41
6734.00,0.41
6733.00,0.41
6732.00,0.41
6731.00,0.42
6730.00,0.42
6729.00,0.42
6728.00,0.42
6727.00,0.42
6726.00,0.42
6725.00,0.42
6724.00,0.42
6723.00,0.42
6722.00,0.42
6721.00,0.42
6720.00,0.42
6719.00,0.42
6718.00,0.42
6717.00,0.42
6716.00,0.42
6715.00,0.42
6714.00,0.42
6713.00,0.42
6712.00,0.42
6711.00,0.42
6710.00,0.42
6709.00,0.42
6708.00,0.42
6707.00,0.42
6706.00,0.42
6705.00,0.42
6704.00,0.42
6703.00,0.42
6702.00,0.42
6701.00,0.43
6700.00,0.43
6699.00,0.43
6698.00,0.43
6697.00,0.43
6696.00,0.43
6695.00,0.43
6694.00,0.43
6693.00,0.43
6692.00,0.43
6691.00,0.43
6690.00,0.44
6689.00,0.44
6688.00,0.44
6687.00,0.44
6686.00,0.44
6685.00,0.44
6684.00,0.44
6683.00,0.44
6682.00,0.44
6681.00,0.44
6680.00,0.44
6679.00,0.44
6678.00,0.44
6677.00,0.44
6676.00,0.44
6675.00,0.44
6674.00,0.44
6673.00,0.44
6672.00,0.44
6671.00,0.44
6670.00,0.44
6669.00,0.45
6668.00,0.45
6667.00,0.45
6666.00,0.45
6665.00,0.45
6664.00,0.45
6663.00,0.45
6662.00,0.45
6661.00,0.45
6660.00,0.45
6659.00,0.45
6658.00,0.45
6657.00,0.45
6656.00,0.45
6655.00,0.45
6654.00,0.45
6653.00,0.45
6652.00,0.45
6651.00,0.45
6650.00,0.46
6649.00,0.46
6648.00,0.46
6647.00,0.46
6646.00,0.46
6645.00,0.46
6644.00,0.46
6643.00,0.46
6642.00,0.46
6641.00,0.46
6640.00,0.46
6639.00,0.46
6638.00,0.46
6637.00,0.46
6636.00,0.47
6635.00,0.47
6634.00,0.47
6633.00,0.47
6632.00,0.47
6631.00,0.47
6630.00,0.47
6629.00,0.47
6628.00,0.47
6627.00,0.48
6626.00,0.48
6625.00,0.48
6624.00,0.48
6623.00,0.48
6622.00,0.48
6621.00,0.48
6620.00,0.48
6619.00,0.48
6618.00,0.48
6617.00,0.49
6616.00,0.49
6615.00,0.49
6614.00,0.49
6613.00,0.49
6612.00,0.49
6611.00,0.49
6610.00,0.49
6609.00,0.49
6608.00,0.49
6607.00,0.49
6606.00,0.49
6605.00,0.49
6604.00,0.49
6603.00,0.49
6602.00,0.49
6601.00,0.49
6600.00,0.49
6599.00,0.49
6598.00,0.49
6597.00,0.49
6596.00,0.50
6595.00,0.50
6594.00,0.50
6593.00,0.50
6592.00,0.50
6591.00,0.50
6590.00,0.50
6589.00,0.50
6588.00,0.50
6587.00,0.51
6586.00,0.51
6585.00,0.51
6584.00,0.51
6583.00,0.51
6582.00,0.51
6581.00,0.51
6580.00,0.51
6579.00,0.51
6578.00,0.51
6577.00,0.51
6576.00,0.51
6575.00,0.51
6574.00,0.51
6573.00,0.51
6572.00,0.51
6571.00,0.52
6570.00,0.52
6569.00,0.52
6568.00,0.52
6567.00,0.52
6566.00,0.52
6565.00,0.52
6564.00,0.52
6563.00,0.52
6562.00,0.52
6561.00,0.52
6560.00,0.52
6559.00,0.52
6558.00,0.53
6557.00,0.53
6556.00,0.53
6555.00,0.53
6554.00,0.53
6553.00,0.53
6552.00,0.53
6551.00,0.53
6550.00,0.53
6549.00,0.53
6548.00,0.53
6547.00,0.53
6546.00,0.53
6545.00,0.53
6544.00,0.53
6543.00,0.53
6542.00,0.53
6541.00,0.53
6540.00,0.53
6539.00,0.53
6538.00,0.54
6537.00,0.54
6536.00,0.54
6535.00,0.54
6534.00,0.54
6533.00,0.54
6532.00,0.54
6531.00,0.54
6530.00,0.55
6529.00,0.55
6528.00,0.55
6527.00,0.55
6526.00,0.55
6525.00,0.55
6524.00,0.55
6523.00,0.55
6522.00,0.55
6521.00,0.56
6520.00,0.56
6519.00,0.56
6518.00,0.56
6517.00,0.56
6516.00,0.56
6515.00,0.56
6514.00,0.56
6513.00,0.56
6512.00,0.56
6511.00,0.56
6510.00,0.56
6509.00,0.56
6508.00,0.56
6507.00,0.56
6506.00,0.56
6505.00,0.56
6504.00,0.56
6503.00,0.56
6502.00,0.56
6501.00,0.56
6500.00,0.56
6499.00,0.56
6498.00,0.56
6497.00,0.56
6496.00,0.56
6495.00,0.56
6494.00,0.57
6493.00,0.57
6492.00,0.57
6491.00,0.57
6490.00,0.57
6489.00,0.57
6488.00,0.57
6487.00,0.57
6486.00,0.57
6485.00,0.57
6484.00,0.57
6483.00,0.57
6482.00,0.57
6481.00,0.57
6480.00,0.58
6479.00,0.58
6478.00,0.58
6477.00,0.58
6476.00,0.58
6475.00,0.58
6474.00,0.58
6473.00,0.58
6472.00,0.58
6471.00,0.58
6470.00,0.58
6469.00,0.58
6468.00,0.58
6467.00,0.58
6466.00,0.58
6465.00,0.59
6464.00,0.59
6463.00,0.59
6462.00,0.59
6461.00,0.59
6460.00,0.59
6459.00,0.59
6458.00,0.59
6457.00,0.59
6456.00,0.59
6455.00,0.59
6454.00,0.59
6453.00,0.59
6452.00,0.59
6451.00,0.60
6450.00,0.60
6449.00,0.60
6448.00,0.60
6447.00,0.60
6446.00,0.60
6445.00,0.60
6444.00,0.60
6443.00,0.60
6442.00,0.60
6441.00,0.60
6440.00,0.60
6439.00,0.60
6438.00,0.60
6437.00,0.60
6436.00,0.60
6435.00,0.60
6434.00,0.60
6433.00,0.60
6432.00,0.60
6431.00,0.60
6430.00,0.60
6429.00,0.60
6428.00,0.60
6427.00,0.60
6426.00,0.60
6425.00,0.60
6424.00,0.60
6423.00,0.60
6422.00,0.60
6421.00,0.61
6420.00,0.61
6419.00,0.61
6418.00,0.61
6417.00,0.61
6416.00,0.61
6415.00,0.61
6414.00,0.61
6413.00,0.61
6412.00,0.61
6411.00,0.61
6410.00,0.62
6409.00,0.62
6408.00,0.62
6407.00,0.62
6406.00,0.62
6405.00,0.62
6404.00,0.62
6403.00,0.62
6402.00,0.62
6401.00,0.62
6400.00,0.62
6399.00,0.62
6398.00,0.62
6397.00,0.62
6396.00,0.62
6395.00,0.62
6394.00,0.63
6393.00,0.63
6392.00,0.63
6391.00,0.63
6390.00,0.63
6389.00,0.63
6388.00,0.63
6387.00,0.63
6386.00,0.63
6385.00,0.63
6384.00,0.63
6383.00,0.63
6382.00,0.63
6381.00,0.63
6380.00,0.63
6379.00,0.63
6378.00,0.63
6377.00,0.63
6376.00,0.63
6375.00,0.63
6374.00,0.63
6373.00,0.63
6372.00,0.63
6371.00,0.63
6370.00,0.63
6369.00,0.64
6368.00,0.64
6367.00,0.64
6366.00,0.64
6365.00,0.64
6364.00,0.64
6363.00,0.64
6362.00,0.64
6361.00,0.64
6360.00,0.64
6359.00,0.64
6358.00,0.65
6357.00,0.65
6356.00,0.65
6355.00,0.65
6354.00,0.65
6353.00,0.65
6352.00,0.65
6351.00,0.65
6350.00,0.65
6349.00,0.65
6348.00,0.65
6347.00,0.65
6346.00,0.65
6345.00,0.65
6344.00,0.65
6343.00,0.65
6342.00,0.65
6341.00,0.65
6340.00,0.65
6339.00,0.65
6338.00,0.66
6337.00,0.66
6336.00,0.66
6335.00,0.66
6334.00,0.66
6333.00,0.66
6332.00,0.66
6331.00,0.66
6330.00,0.66
6329.00,0.66
6328.00,0.67
6327.00,0.67
6326.00,0.67
6325.00,0.67
6324.00,0.67
6323.00,0.67
6322.00,0.67
6321.00,0.67
6320.00,0.67
6319.00,0.67
6318.00,0.67
6317.00,0.67
6316.00,0.68
6315.00,0.68
6314.00,0.68
6313.00,0.68
6312.00,0.68
6311.00,0.68
6310.00,0.68
6309.00,0.68
6308.00,0.68
6307.00,0.68
6306.00,0.68
6305.00,0.68
6304.00,0.68
6303.00,0.68
6302.00,0.68
6301.00,0.69
6300.00,0.69
6299.00,0.69
6298.00,0.69
6297.00,0.69
6296.00,0.69
6295.00,0.69
6294.00,0.69
6293.00,0.69
6292.00,0.69
6291.00,0.69
6290.00,0.69
6289.00,0.70
6288.00,0.70
6287.00,0.70
6286.00,0.70
6285.00,0.70
6284.00,0.70
6283.00,0.70
6282.00,0.70
6281.00,0.70
6280.00,0.70
6279.00,0.70
6278.00,0.70
6277.00,0.71
6276.00,0.71
6275.00,0.71
6274.00,0.71
6273.00,0.71
6272.00,0.71
6271.00,0.71
6270.00,0.71
6269.00,0.71
6268.00,0.71
6267.00,0.71
6266.00,0.71
6265.00,0.71
6264.00,0.72
6263.00,0.72
6262.00,0.72
6261.00,0.72
6260.00,0.72
6259.00,0.72
6258.00,0.72
6257.00,0.72
6256.00,0.72
6255.00,0.72
6254.00,0.72
6253.00,0.72
6252.00,0.72
6251.00,0.72
6250.00,0.73
6249.00,0.73
6248.00,0.73
6247.00,0.73
6246.00,0.73
6245.00,0.73
6244.00,0.73
6243.00,0.73
6242.00,0.73
6241.00,0.73
6240.00,0.73
6239.00,0.73
6238.00,0.73
6237.00,0.74
6236.00,0.74
6235.00,0.74
6234.00,0.74
6233.00,0.74
6232.00,0.74
6231.00,0.74
6230.00,0.74
6229.00,0.74
6228.00,0.74
6227.00,0.74
6226.00,0.74
6225.00,0.75
6224.00,0.75
6223.00,0.75
6222.00,0.75
6221.00,0.75
6220.00,0.75
6219.00,0.75
6218.00,0.75
6217.00,0.75
6216.00,0.75
6215.00,0.76
6214.00,0.76
6213.00,0.76
6212.00,0.76
6211.00,0.76
6210.00,0.76
6209.00,0.76
6208.00,0.76
6207.00,0.76
6206.00,0.76
6205.00,0.76
6204.00,0.77
6203.00,0.77
6202.00,0.77
6201.00,0.77
6200.00,0.77
6199.00,0.77
6198.00,0.77
6197.00,0.77
6196.00,0.77
6195.00,0.77
6194.00,0.77
6193.00,0.77
6192.00,0.77
6191.00,0.77
6190.00,0.77
6189.00,0.77
6188.00,0.77
6187.00,0.77
6186.00,0.78
6185.00,0.78
6184.00,0.78
6183.00,0.78
6182.00,0.78
6181.00,0.78
6180.00,0.78
6179.00,0.78
6178.00,0.78
6177.00,0.78
6176.00,0.78
6175.00,0.78
6174.00,0.79
6173.00,0.79
6172.00,0.79
6171.00,0.79
6170.00,0.79
6169.00,0.79
6168.00,0.79
6167.00,0.79
6166.00,0.79
6165.00,0.79
6164.00,0.79
6163.00,0.79
6162.00,0.80
6161.00,0.80
6160.00,0.80
6159.00,0.80
6158.00,0.80
6157.00,0.80
6156.00,0.80
6155.00,0.80
6154.00,0.80
6153.00,0.80
6152.00,0.81
6151.00,0.81
6150.00,0.81
6149.00,0.81
6148.00,0.81
6147.00,0.81
6146.00,0.81
6145.00,0.81
6144.00,0.81
6143.00,0.81
6142.00,0.81
6141.00,0.82
6140.00,0.82
6139.00,0.82
6138.00,0.82
6137.00,0.82
6136.00,0.82
6135.00,0.82
6134.00,0.82
6133.00,0.82
6132.00,0.82
6131.00,0.82
6130.00,0.83
6129.00,0.83
6128.00,0.83
6127.00,0.83
6126.00,0.83
6125.00,0.83
6124.00,0.83
6123.00,0.83
6122.00,0.83
6121.00,0.83
6120.00,0.83
6119.00,0.84
6118.00,0.84
6117.00,0.84
6116.00,0.84
6115.00,0.84
6114.00,0.84
6113.00,0.84
6112.00,0.84
6111.00,0.84
6110.00,0.84
6109.00,0.85
6108.00,0.85
6107.00,0.85
6106.00,0.85
6105.00,0.85
6104.00,0.85
6103.00,0.85
6102.00,0.85
6101.00,0.85
6100.00,0.85
6099.00,0.86
6098.00,0.86
6097.00,0.86
6096.00,0.86
6095.00,0.86
6094.00,0.86
6093.00,0.86
6092.00,0.86
6091.00,0.86
6090.00,0.86
6089.00,0.86
6088.00,0.86
6087.00,0.86
6086.00,0.86
6085.00,0.87
6084.00,0.87
6083.00,0.87
6082.00,0.87
6081.00,0.87
6080.00,0.87
6079.00,0.87
6078.00,0.87
6077.00,0.87
6076.00,0.87
6075.00,0.87
6074.00,0.87
6073.00,0.87
6072.00,0.87
6071.00,0.88
6070.00,0.88
6069.00,0.88
6068.00,0.88
6067.00,0.88
6066.00,0.88
6065.00,0.88
6064.00,0.88
6063.00,0.88
6062.00,0.88
6061.00,0.88
6060.00,0.88
6059.00,0.88
6058.00,0.88
6057.00,0.88
6056.00,0.88
6055.00,0.88
6054.00,0.88
6053.00,0.88
6052.00,0.89
6051.00,0.89
6050.00,0.89
6049.00,0.89
6048.00,0.89
6047.00,0.89
6046.00,0.89
6045.00,0.89
6044.00,0.89
6043.00,0.89
6042.00,0.89
6041.00,0.89
6040.00,0.89
6039.00,0.89
6038.00,0.89
6037.00,0.89
6036.00,0.89
6035.00,0.89
6034.00,0.89
6033.00,0.89
6032.00,0.89
6031.00,0.89
6030.00,0.89
6029.00,0.90
6028.00,0.90
6027.00,0.90
6026.00,0.90
6025.00,0.90
6024.00,0.90
6023.00,0.90
6022.00,0.90
6021.00,0.90
6020.00,0.90
6019.00,0.90
6018.00,0.90
6017.00,0.90
6016.00,0.90
6015.00,0.90
6014.00,0.90
6013.00,0.90
6012.00,0.90
6011.00,0.90
6010.00,0.90
6009.00,0.90
6008.00,0.90
6007.00,0.90
6006.00,0.90
6005.00,0.90
6004.00,0.90
6003.00,0.90
6002.00,0.90
6001.00,0.90
6000.00,0.90
5999.00,0.90
5998.00,0.90
5997.00,0.90
5996.00,0.90
5995.00,0.90
5994.00,0.90
5993.00,0.90
5992.00,0.90
5991.00,0.90
5990.00,0.90
5989.00,0.90
5988.00,0.89
5987.00,0.89
5986.00,0.89
5985.00,0.89
5984.00,0.89
5983.00,0.89
5982.00,0.89
5981.00,0.88
5980.00,0.88
5979.00,0.88
5978.00,0.88
5977.00,0.88
5976.00,0.87
5975.00,0.87
5974.00,0.87
5973.00,0.86
5972.00,0.86
5971.00,0.86
5970.00,0.86
5969.00,0.85
5968.00,0.85
5967.00,0.85
5966.00,0.84
5965.00,0.84
5964.00,0.84
5963.00,0.83
5962.00,0.83
5961.00,0.82
5960.00,0.82
5959.00,0.82
5958.00,0.81
5957.00,0.81
5956.00,0.81
5955.00,0.80
5954.00,0.80
5953.00,0.80
5952.00,0.79
5951.00,0.79
5950.00,0.79
5949.00,0.79
5948.00,0.79
5947.00,0.78
5946.00,0.78
5945.00,0.78
5944.00,0.78
5943.00,0.78
5942.00,0.78
5941.00,0.78
5940.00,0.78
5939.00,0.77
5938.00,0.77
5937.00,0.77
5936.00,0.77
5935.00,0.77
5934.00,0.77
5933.00,0.77
5932.00,0.77
5931.00,0.77
5930.00,0.77
5929.00,0.77
5928.00,0.77
5927.00,0.77
5926.00,0.77
5925.00,0.76
5924.00,0.76
5923.00,0.76
5922.00,0.76
5921.00,0.76
5920.00,0.76
5919.00,0.76
5918.00,0.75
5917.00,0.75
5916.00,0.75
5915.00,0.75
5914.00,0.75
5913.00,0.75
5912.00,0.74
5911.00,0.74
5910.00,0.74
5909.00,0.74
5908.00,0.74
5907.00,0.74
5906.00,0.74
5905.00,0.74
5904.00,0.74
5903.00,0.74
5902.00,0.74
5901.00,0.74
5900.00,0.74
5899.00,0.74
5898.00,0.74
5897.00,0.74
5896.00,0.74
5895.00,0.75
5894.00,0.75
5893.00,0.75
5892.00,0.75
5891.00,0.75
5890.00,0.75
5889.00,0.76
5888.00,0.76
5887.00,0.76
5886.00,0.76
5885.00,0.76
5884.00,0.76
5883.00,0.76
5882.00,0.77
5881.00,0.77
5880.00,0.77
5879.00,0.77
5878.00,0.77
5877.00,0.77
5876.00,0.78
5875.00,0.78
5874.00,0.78
5873.00,0.78
5872.00,0.78
5871.00,0.78
5870.00,0.78
5869.00,0.79
5868.00,0.79
5867.00,0.79
5866.00,0.79
5865.00,0.79
5864.00,0.79
5863.00,0.79
5862.00,0.79
5861.00,0.79
5860.00,0.80
5859.00,0.80
5858.00,0.80
5857.00,0.80
5856.00,0.80
5855.00,0.80
5854.00,0.80
5853.00,0.80
5852.00,0.80
5851.00,0.80
5850.00,0.80
5849.00,0.80
5848.00,0.80
5847.00,0.80
5846.00,0.80
5845.00,0.80
5844.00,0.80
5843.00,0.80
5842.00,0.80
5841.00,0.80
5840.00,0.80
5839.00,0.80
5838.00,0.80
5837.00,0.80
5836.00,0.80
5835.00,0.80
5834.00,0.80
5833.00,0.80
5832.00,0.80
5831.00,0.80
5830.00,0.80
5829.00,0.80
5828.00,0.80
5827.00,0.80
5826.00,0.80
5825.00,0.80
5824.00,0.80
5823.00,0.80
5822.00,0.80
5821.00,0.80
5820.00,0.80
5819.00,0.80
5818.00,0.80
5817.00,0.80
5816.00,0.80
5815.00,0.80
5814.00,0.80
5813.00,0.80
5812.00,0.80
5811.00,0.80
5810.00,0.80
5809.00,0.80
5808.00,0.80
5807.00,0.80
5806.00,0.80
5805.00,0.80
5804.00,0.80
5803.00,0.80
5802.00,0.79
5801.00,0.79
5800.00,0.79
5799.00,0.79
5798.00,0.79
5797.00,0.79
5796.00,0.79
5795.00,0.79
5794.00,0.79
5793.00,0.79
5792.00,0.79
5791.00,0.78
5790.00,0.78
5789.00,0.78
5788.00,0.78
5787.00,0.78
5786.00,0.78
5785.00,0.77
5784.00,0.77
5783.00,0.77
5782.00,0.77
5781.00,0.77
5780.00,0.77
5779.00,0.77
5778.00,0.77
5777.00,0.77
5776.00,0.77
5775.00,0.77
5774.00,0.77
5773.00,0.77
5772.00,0.77
5771.00,0.77
5770.00,0.77
5769.00,0.77
5768.00,0.77
5767.00,0.77
5766.00,0.77
5765.00,0.77
5764.00,0.77
5763.00,0.77
5762.00,0.77
5761.00,0.77
5760.00,0.78
5759.00,0.78
5758.00,0.78
5757.00,0.78
5756.00,0.78
5755.00,0.79
5754.00,0.79
5753.00,0.79
5752.00,0.79
5751.00,0.79
5750.00,0.79
5749.00,0.80
5748.00,0.80
5747.00,0.80
5746.00,0.80
5745.00,0.80
5744.00,0.80
5743.00,0.80
5742.00,0.80
5741.00,0.81
5740.00,0.81
5739.00,0.81
5738.00,0.81
5737.00,0.81
5736.00,0.81
5735.00,0.81
5734.00,0.81
5733.00,0.81
5732.00,0.81
5731.00,0.81
5730.00,0.82
5729.00,0.82
5728.00,0.82
5727.00,0.82
5726.00,0.82
5725.00,0.82
5724.00,0.82
5723.00,0.82
5722.00,0.82
5721.00,0.82
5720.00,0.82
5719.00,0.82
5718.00,0.82
5717.00,0.82
5716.00,0.82
5715.00,0.82
5714.00,0.82
5713.00,0.82
5712.00,0.82
5711.00,0.81
5710.00,0.81
5709.00,0.81
5708.00,0.81
5707.00,0.81
5706.00,0.81
5705.00,0.81
5704.00,0.81
5703.00,0.81
5702.00,0.81
5701.00,0.81
5700.00,0.81
5699.00,0.81
5698.00,0.81
5697.00,0.81
5696.00,0.81
5695.00,0.80
5694.00,0.80
5693.00,0.80
5692.00,0.80
5691.00,0.80
5690.00,0.80
5689.00,0.80
5688.00,0.80
5687.00,0.80
5686.00,0.80
5685.00,0.80
5684.00,0.79
5683.00,0.79
5682.00,0.79
5681.00,0.79
5680.00,0.79
5679.00,0.79
5678.00,0.79
5677.00,0.79
5676.00,0.79
5675.00,0.79
5674.00,0.79
5673.00,0.79
5672.00,0.79
5671.00,0.79
5670.00,0.79
5669.00,0.79
5668.00,0.79
5667.00,0.79
5666.00,0.79
5665.00,0.79
5664.00,0.79
5663.00,0.79
5662.00,0.79
5661.00,0.79
5660.00,0.79
5659.00,0.80
5658.00,0.80
5657.00,0.80
5656.00,0.80
5655.00,0.80
5654.00,0.80
5653.00,0.80
5652.00,0.80
5651.00,0.80
5650.00,0.80
5649.00,0.80
5648.00,0.80
5647.00,0.80
5646.00,0.80
5645.00,0.81
5644.00,0.81
5643.00,0.81
5642.00,0.81
5641.00,0.81
5640.00,0.81
5639.00,0.81
5638.00,0.81
5637.00,0.81
5636.00,0.81
5635.00,0.81
5634.00,0.81
5633.00,0.81
5632.00,0.81
5631.00,0.81
5630.00,0.81
5629.00,0.82
5628.00,0.82
5627.00,0.82
5626.00,0.82
5625.00,0.82
5624.00,0.82
5623.00,0.82
5622.00,0.82
5621.00,0.82
5620.00,0.83
5619.00,0.83
5618.00,0.83
5617.00,0.83
5616.00,0.83
5615.00,0.83
5614.00,0.83
5613.00,0.83
5612.00,0.83
5611.00,0.83
5610.00,0.83
5609.00,0.83
5608.00,0.84
5607.00,0.84
5606.00,0.84
5605.00,0.84
5604.00,0.84
5603.00,0.84
5602.00,0.84
5601.00,0.84
5600.00,0.84
5599.00,0.84
5598.00,0.84
5597.00,0.84
5596.00,0.85
5595.00,0.85
5594.00,0.85
5593.00,0.85
5592.00,0.85
5591.00,0.85
5590.00,0.85
5589.00,0.85
5588.00,0.85
5587.00,0.85
5586.00,0.85
5585.00,0.85
5584.00,0.85
5583.00,0.85
5582.00,0.86
5581.00,0.86
5580.00,0.86
5579.00,0.86
5578.00,0.86
5577.00,0.86
5576.00,0.86
5575.00,0.86
5574.00,0.86
5573.00,0.86
5572.00,0.86
5571.00,0.86
5570.00,0.86
5569.00,0.86
5568.00,0.86
5567.00,0.87
5566.00,0.87
5565.00,0.87
5564.00,0.87
5563.00,0.87
5562.00,0.87
5561.00,0.87
5560.00,0.87
5559.00,0.87
5558.00,0.87
5557.00,0.88
5556.00,0.88
5555.00,0.88
5554.00,0.88
5553.00,0.88
5552.00,0.88
5551.00,0.88
5550.00,0.88
5549.00,0.88
5548.00,0.88
5547.00,0.88
5546.00,0.88
5545.00,0.88
5544.00,0.88
5543.00,0.88
5542.00,0.88
5541.00,0.88
5540.00,0.88
5539.00,0.88
5538.00,0.88
5537.00,0.89
5536.00,0.89
5535.00,0.89
5534.00,0.89
5533.00,0.89
5532.00,0.89
5531.00,0.89
5530.00,0.89
5529.00,0.89
5528.00,0.89
5527.00,0.89
5526.00,0.89
5525.00,0.89
5524.00,0.89
5523.00,0.89
5522.00,0.89
5521.00,0.89
5520.00,0.90
5519.00,0.90
5518.00,0.90
5517.00,0.90
5516.00,0.90
5515.00,0.90
5514.00,0.90
5513.00,0.90
5512.00,0.90
5511.00,0.90
5510.00,0.90
5509.00,0.90
5508.00,0.90
5507.00,0.90
5506.00,0.90
5505.00,0.90
5504.00,0.91
5503.00,0.91
5502.00,0.91
5501.00,0.91
5500.00,0.91
5499.00,0.91
5498.00,0.91
5497.00,0.91
5496.00,0.91
5495.00,0.91
5494.00,0.91
5493.00,0.91
5492.00,0.91
5491.00,0.91
5490.00,0.91
5489.00,0.91
5488.00,0.91
5487.00,0.91
5486.00,0.91
5485.00,0.91
5484.00,0.91
5483.00,0.91
5482.00,0.91
5481.00,0.91
5480.00,0.91
5479.00,0.91
5478.00,0.91
5477.00,0.92
5476.00,0.92
5475.00,0.92
5474.00,0.92
5473.00,0.92
5472.00,0.92
5471.00,0.92
5470.00,0.92
5469.00,0.92
5468.00,0.92
5467.00,0.92
5466.00,0.92
5465.00,0.92
5464.00,0.92
5463.00,0.92
5462.00,0.92
5461.00,0.92
5460.00,0.92
5459.00,0.92
5458.00,0.92
5457.00,0.92
5456.00,0.92
5455.00,0.92
5454.00,0.92
5453.00,0.92
5452.00,0.92
5451.00,0.92
5450.00,0.92
5449.00,0.92
5448.00,0.92
5447.00,0.92
5446.00,0.92
5445.00,0.92
5444.00,0.92
5443.00,0.93
5442.00,0.93
5441.00,0.93
5440.00,0.93
5439.00,0.93
5438.00,0.93
5437.00,0.93
5436.00,0.93
5435.00,0.93
5434.00,0.93
5433.00,0.93
5432.00,0.93
5431.00,0.93
5430.00,0.93
5429.00,0.93
5428.00,0.93
5427.00,0.93
5426.00,0.93
5425.00,0.93
5424.00,0.93
5423.00,0.93
5422.00,0.93
5421.00,0.93
5420.00,0.93
5419.00,0.93
5418.00,0.93
5417.00,0.93
5416.00,0.92
5415.00,0.92
5414.00,0.92
5413.00,0.92
5412.00,0.92
5411.00,0.92
5410.00,0.92
5409.00,0.92
5408.00,0.92
5407.00,0.92
5406.00,0.92
5405.00,0.92
5404.00,0.92
5403.00,0.92
5402.00,0.92
5401.00,0.91
5400.00,0.91
5399.00,0.91
5398.00,0.91
5397.00,0.91
5396.00,0.91
5395.00,0.91
5394.00,0.91
5393.00,0.91
5392.00,0.90
5391.00,0.90
5390.00,0.90
5389.00,0.90
5388.00,0.90
5387.00,0.90
5386.00,0.89
5385.00,0.89
5384.00,0.89
5383.00,0.89
5382.00,0.89
5381.00,0.88
5380.00,0.88
5379.00,0.88
5378.00,0.88
5377.00,0.87
5376.00,0.87
5375.00,0.87
5374.00,0.86
5373.00,0.86
5372.00,0.86
5371.00,0.85
5370.00,0.85
5369.00,0.85
5368.00,0.84
5367.00,0.84
5366.00,0.84
5365.00,0.83
5364.00,0.83
5363.00,0.82
5362.00,0.82
5361.00,0.81
5360.00,0.81
5359.00,0.80
5358.00,0.80
5357.00,0.79
5356.00,0.79
5355.00,0.78
5354.00,0.78
5353.00,0.77
5352.00,0.76
5351.00,0.76
5350.00,0.75
5349.00,0.75
5348.00,0.74
5347.00,0.73
5346.00,0.73
5345.00,0.72
5344.00,0.72
5343.00,0.71
5342.00,0.70
5341.00,0.70
5340.00,0.69
5339.00,0.68
5338.00,0.68
5337.00,0.67
5336.00,0.67
5335.00,0.66
5334.00,0.65
5333.00,0.65
5332.00,0.64
5331.00,0.64
5330.00,0.63
5329.00,0.62
5328.00,0.62
5327.00,0.61
5326.00,0.61
5325.00,0.60
5324.00,0.59
5323.00,0.59
5322.00,0.58
5321.00,0.58
5320.00,0.57
5319.00,0.57
5318.00,0.56
5317.00,0.56
5316.00,0.55
5315.00,0.55
5314.00,0.54
5313.00,0.54
5312.00,0.53
5311.00,0.53
5310.00,0.52
5309.00,0.52
5308.00,0.51
5307.00,0.51
5306.00,0.51
5305.00,0.50
5304.00,0.50
5303.00,0.49
5302.00,0.49
5301.00,0.49
5300.00,0.49
5299.00,0.48
5298.00,0.48
5297.00,0.48
5296.00,0.48
5295.00,0.47
5294.00,0.47
5293.00,0.47
5292.00,0.47
5291.00,0.47
5290.00,0.46
5289.00,0.46
5288.00,0.46
5287.00,0.46
5286.00,0.46
5285.00,0.46
5284.00,0.46
5283.00,0.46
5282.00,0.46
5281.00,0.45
5280.00,0.45
5279.00,0.45
5278.00,0.45
5277.00,0.45
5276.00,0.45
5275.00,0.45
5274.00,0.45
5273.00,0.45
5272.00,0.45
5271.00,0.45
5270.00,0.45
5269.00,0.45
5268.00,0.45
5267.00,0.45
5266.00,0.45
5265.00,0.45
5264.00,0.45
5263.00,0.45
5262.00,0.45
5261.00,0.45
5260.00,0.45
5259.00,0.45
5258.00,0.45
5257.00,0.45
5256.00,0.45
5255.00,0.45
5254.00,0.45
5253.00,0.45
5252.00,0.45
5251.00,0.45
5250.00,0.45
5249.00,0.45
5248.00,0.45
5247.00,0.45
5246.00,0.45
5245.00,0.45
5244.00,0.45
5243.00,0.45
5242.00,0.45
5241.00,0.45
5240.00,0.45
5239.00,0.45
5238.00,0.45
5237.00,0.45
5236.00,0.45
5235.00,0.45
5234.00,0.45
5233.00,0.45
5232.00,0.45
5231.00,0.45
5230.00,0.45
5229.00,0.45
5228.00,0.45
5227.00,0.45
5226.00,0.45
5225.00,0.45
5224.00,0.45
5223.00,0.46
5222.00,0.46
5221.00,0.46
5220.00,0.46
5219.00,0.46
5218.00,0.46
5217.00,0.46
5216.00,0.46
5215.00,0.46
5214.00,0.46
5213.00,0.46
5212.00,0.46
5211.00,0.46
5210.00,0.46
5209.00,0.46
5208.00,0.46
5207.00,0.46
5206.00,0.46
5205.00,0.46
5204.00,0.46
5203.00,0.46
5202.00,0.46
5201.00,0.46
5200.00,0.46
5199.00,0.46
5198.00,0.46
5197.00,0.46
5196.00,0.46
5195.00,0.46
5194.00,0.46
5193.00,0.46
5192.00,0.46
5191.00,0.46
5190.00,0.46
5189.00,0.46
5188.00,0.47
5187.00,0.47
5186.00,0.47
5185.00,0.47
5184.00,0.47
5183.00,0.47
5182.00,0.47
5181.00,0.47
5180.00,0.47
5179.00,0.47
5178.00,0.47
5177.00,0.47
5176.00,0.47
5175.00,0.47
5174.00,0.47
5173.00,0.47
5172.00,0.47
5171.00,0.47
5170.00,0.47
5169.00,0.47
5168.00,0.47
5167.00,0.47
5166.00,0.47
5165.00,0.47
5164.00,0.47
5163.00,0.47
5162.00,0.47
5161.00,0.47
5160.00,0.47
5159.00,0.48
5158.00,0.48
5157.00,0.48
5156.00,0.48
5155.00,0.48
5154.00,0.48
5153.00,0.48
5152.00,0.48
5151.00,0.48
5150.00,0.48
5149.00,0.48
5148.00,0.48
5147.00,0.48
5146.00,0.48
5145.00,0.48
5144.00,0.48
5143.00,0.48
5142.00,0.48
5141.00,0.48
5140.00,0.48
5139.00,0.48
5138.00,0.48
5137.00,0.48
5136.00,0.48
5135.00,0.48
5134.00,0.48
5133.00,0.48
5132.00,0.48
5131.00,0.48
5130.00,0.48
5129.00,0.48
5128.00,0.48
5127.00,0.48
5126.00,0.48
5125.00,0.48
5124.00,0.48
5123.00,0.48
5122.00,0.49
5121.00,0.49
5120.00,0.49
5119.00,0.49
5118.00,0.49
5117.00,0.49
5116.00,0.49
5115.00,0.49
5114.00,0.49
5113.00,0.49
5112.00,0.49
5111.00,0.49
5110.00,0.49
5109.00,0.49
5108.00,0.49
5107.00,0.49
5106.00,0.49
5105.00,0.49
5104.00,0.49
5103.00,0.49
5102.00,0.49
5101.00,0.49
5100.00,0.49
5099.00,0.49
5098.00,0.49
5097.00,0.49
5096.00,0.49
5095.00,0.49
5094.00,0.49
5093.00,0.49
5092.00,0.49
5091.00,0.50
5090.00,0.50
5089.00,0.50
5088.00,0.50
5087.00,0.50
5086.00,0.50
5085.00,0.50
5084.00,0.50
5083.00,0.50
5082.00,0.50
5081.00,0.50
5080.00,0.50
5079.00,0.50
5078.00,0.50
5077.00,0.50
5076.00,0.50
5075.00,0.50
5074.00,0.50
5073.00,0.50
5072.00,0.50
5071.00,0.50
5070.00,0.50
5069.00,0.50
5068.00,0.50
5067.00,0.50
5066.00,0.50
5065.00,0.51
5064.00,0.51
5063.00,0.51
5062.00,0.51
5061.00,0.51
5060.00,0.51
5059.00,0.51
5058.00,0.51
5057.00,0.51
5056.00,0.51
5055.00,0.51
5054.00,0.51
5053.00,0.51
5052.00,0.51
5051.00,0.51
5050.00,0.51
5049.00,0.51
5048.00,0.51
5047.00,0.51
5046.00,0.51
5045.00,0.51
5044.00,0.51
5043.00,0.51
5042.00,0.52
5041.00,0.52
5040.00,0.52
5039.00,0.52
5038.00,0.52
5037.00,0.52
5036.00,0.52
5035.00,0.52
5034.00,0.52
5033.00,0.52
5032.00,0.52
5031.00,0.52
5030.00,0.52
5029.00,0.52
5028.00,0.52
5027.00,0.52
5026.00,0.52
5025.00,0.52
5024.00,0.52
5023.00,0.52
5022.00,0.52
5021.00,0.52
5020.00,0.52
5019.00,0.52
5018.00,0.52
5017.00,0.52
5016.00,0.52
5015.00,0.53
5014.00,0.53
5013.00,0.53
5012.00,0.53
5011.00,0.53
5010.00,0.53
5009.00,0.53
5008.00,0.53
5007.00,0.53
5006.00,0.53
5005.00,0.53
5004.00,0.53
5003.00,0.53
5002.00,0.53
5001.00,0.53
5000.00,0.53
4999.00,0.53
4998.00,0.53
4997.00,0.53
4996.00,0.53
4995.00,0.53
4994.00,0.53
4993.00,0.53
4992.00,0.53
4991.00,0.53
4990.00,0.53
4989.00,0.54
4988.00,0.54
4987.00,0.54
4986.00,0.54
4985.00,0.54
4984.00,0.54
4983.00,0.54
4982.00,0.54
4981.00,0.54
4980.00,0.54
4979.00,0.54
4978.00,0.54
4977.00,0.54
4976.00,0.54
4975.00,0.54
4974.00,0.54
4973.00,0.54
4972.00,0.54
4971.00,0.54
4970.00,0.54
4969.00,0.54
4968.00,0.54
4967.00,0.55
4966.00,0.55
4965.00,0.55
4964.00,0.55
4963.00,0.55
4962.00,0.55
4961.00,0.55
4960.00,0.55
4959.00,0.55
4958.00,0.55
4957.00,0.55
4956.00,0.55
4955.00,0.55
4954.00,0.55
4953.00,0.55
4952.00,0.55
4951.00,0.55
4950.00,0.56
4949.00,0.56
4948.00,0.56
4947.00,0.56
4946.00,0.56
4945.00,0.56
4944.00,0.56
4943.00,0.56
4942.00,0.56
4941.00,0.56
4940.00,0.56
4939.00,0.56
4938.00,0.56
4937.00,0.56
4936.00,0.57
4935.00,0.57
4934.00,0.57
4933.00,0.57
4932.00,0.57
4931.00,0.57
4930.00,0.57
4929.00,0.57
4928.00,0.57
4927.00,0.57
4926.00,0.57
4925.00,0.57
4924.00,0.57
4923.00,0.57
4922.00,0.57
4921.00,0.57
4920.00,0.57
4919.00,0.57
4918.00,0.57
4917.00,0.58
4916.00,0.58
4915.00,0.58
4914.00,0.58
4913.00,0.58
4912.00,0.58
4911.00,0.58
4910.00,0.58
4909.00,0.58
4908.00,0.58
4907.00,0.58
4906.00,0.58
4905.00,0.58
4904.00,0.58
4903.00,0.58
4902.00,0.58
4901.00,0.58
4900.00,0.58
4899.00,0.58
4898.00,0.58
4897.00,0.58
4896.00,0.58
4895.00,0.58
4894.00,0.58
4893.00,0.58
4892.00,0.58
4891.00,0.59
4890.00,0.59
4889.00,0.59
4888.00,0.59
4887.00,0.59
4886.00,0.59
4885.00,0.59
4884.00,0.59
4883.00,0.59
4882.00,0.59
4881.00,0.59
4880.00,0.59
4879.00,0.60
4878.00,0.60
4877.00,0.60
4876.00,0.60
4875.00,0.60
4874.00,0.60
4873.00,0.60
4872.00,0.60
4871.00,0.60
4870.00,0.60
4869.00,0.60
4868.00,0.60
4867.00,0.60
4866.00,0.61
4865.00,0.61
4864.00,0.61
4863.00,0.61
4862.00,0.61
4861.00,0.61
4860.00,0.61
4859.00,0.61
4858.00,0.61
4857.00,0.61
4856.00,0.61
4855.00,0.61
4854.00,0.61
4853.00,0.61
4852.00,0.61
4851.00,0.61
4850.00,0.61
4849.00,0.61
4848.00,0.61
4847.00,0.61
4846.00,0.61
4845.00,0.61
4844.00,0.62
4843.00,0.62
4842.00,0.62
4841.00,0.62
4840.00,0.62
4839.00,0.62
4838.00,0.62
4837.00,0.62
4836.00,0.62
4835.00,0.62
4834.00,0.62
4833.00,0.62
4832.00,0.62
4831.00,0.62
4830.00,0.62
4829.00,0.62
4828.00,0.63
4827.00,0.63
4826.00,0.63
4825.00,0.63
4824.00,0.63
4823.00,0.63
4822.00,0.63
4821.00,0.63
4820.00,0.63
4819.00,0.63
4818.00,0.63
4817.00,0.63
4816.00,0.63
4815.00,0.63
4814.00,0.63
4813.00,0.64
4812.00,0.64
4811.00,0.64
4810.00,0.64
4809.00,0.64
4808.00,0.64
4807.00,0.64
4806.00,0.64
4805.00,0.64
4804.00,0.64
4803.00,0.64
4802.00,0.64
4801.00,0.65
4800.00,0.65
4799.00,0.65
4798.00,0.65
4797.00,0.65
4796.00,0.65
4795.00,0.65
4794.00,0.65
4793.00,0.65
4792.00,0.65
4791.00,0.66
4790.00,0.66
4789.00,0.66
4788.00,0.66
4787.00,0.66
4786.00,0.66
4785.00,0.66
4784.00,0.66
4783.00,0.66
4782.00,0.66
4781.00,0.66
4780.00,0.67
4779.00,0.67
4778.00,0.67
4777.00,0.67
4776.00,0.67
4775.00,0.67
4774.00,0.67
4773.00,0.67
4772.00,0.67
4771.00,0.67
4770.00,0.67
4769.00,0.68
4768.00,0.68
4767.00,0.68
4766.00,0.68
4765.00,0.68
4764.00,0.68
4763.00,0.68
4762.00,0.68
4761.00,0.68
4760.00,0.68
4759.00,0.68
4758.00,0.68
4757.00,0.69
4756.00,0.69
4755.00,0.69
4754.00,0.69
4753.00,0.69
4752.00,0.69
4751.00,0.69
4750.00,0.69
4749.00,0.69
4748.00,0.69
4747.00,0.69
4746.00,0.70
4745.00,0.70
4744.00,0.70
4743.00,0.70
4742.00,0.70
4741.00,0.70
4740.00,0.70
4739.00,0.70
4738.00,0.70
4737.00,0.71
4736.00,0.71
4735.00,0.71
4734.00,0.71
4733.00,0.71
4732.00,0.71
4731.00,0.71
4730.00,0.72
4729.00,0.72
4728.00,0.72
4727.00,0.72
4726.00,0.72
4725.00,0.72
4724.00,0.72
4723.00,0.72
4722.00,0.73
4721.00,0.73
4720.00,0.73
4719.00,0.73
4718.00,0.73
4717.00,0.73
4716.00,0.73
4715.00,0.73
4714.00,0.73
4713.00,0.73
4712.00,0.73
4711.00,0.73
4710.00,0.73
4709.00,0.74
4708.00,0.74
4707.00,0.74
4706.00,0.74
4705.00,0.74
4704.00,0.74
4703.00,0.74
4702.00,0.74
4701.00,0.74
4700.00,0.74
4699.00,0.75
4698.00,0.75
4697.00,0.75
4696.00,0.75
4695.00,0.75
4694.00,0.75
4693.00,0.75
4692.00,0.75
4691.00,0.75
4690.00,0.75
4689.00,0.75
4688.00,0.75
4687.00,0.75
4686.00,0.76
4685.00,0.76
4684.00,0.76
4683.00,0.76
4682.00,0.76
4681.00,0.76
4680.00,0.76
4679.00,0.76
4678.00,0.76
4677.00,0.77
4676.00,0.77
4675.00,0.77
4674.00,0.77
4673.00,0.77
4672.00,0.77
4671.00,0.77
4670.00,0.78
4669.00,0.78
4668.00,0.78
4667.00,0.78
4666.00,0.78
4665.00,0.78
4664.00,0.78
4663.00,0.78
4662.00,0.78
4661.00,0.78
4660.00,0.78
4659.00,0.78
4658.00,0.79
4657.00,0.79
4656.00,0.79
4655.00,0.79
4654.00,0.79
4653.00,0.79
4652.00,0.79
4651.00,0.79
4650.00,0.79
4649.00,0.79
4648.00,0.79
4647.00,0.79
4646.00,0.79
4645.00,0.79
4644.00,0.79
4643.00,0.79
4642.00,0.79
4641.00,0.79
4640.00,0.79
4639.00,0.79
4638.00,0.79
4637.00,0.79
4636.00,0.79
4635.00,0.80
4634.00,0.80
4633.00,0.80
4632.00,0.80
4631.00,0.80
4630.00,0.80
4629.00,0.81
4628.00,0.81
4627.00,0.81
4626.00,0.81
4625.00,0.81
4624.00,0.81
4623.00,0.81
4622.00,0.82
4621.00,0.82
4620.00,0.82
4619.00,0.82
4618.00,0.82
4617.00,0.82
4616.00,0.82
4615.00,0.82
4614.00,0.82
4613.00,0.82
4612.00,0.82
4611.00,0.83
4610.00,0.83
4609.00,0.83
4608.00,0.83
4607.00,0.83
4606.00,0.83
4605.00,0.83
4604.00,0.83
4603.00,0.83
4602.00,0.83
4601.00,0.83
4600.00,0.83
4599.00,0.83
4598.00,0.83
4597.00,0.83
4596.00,0.83
4595.00,0.83
4594.00,0.83
4593.00,0.83
4592.00,0.83
4591.00,0.83
4590.00,0.83
4589.00,0.83
4588.00,0.83
4587.00,0.83
4586.00,0.83
4585.00,0.83
4584.00,0.83
4583.00,0.84
4582.00,0.84
4581.00,0.84
4580.00,0.84
4579.00,0.84
4578.00,0.84
4577.00,0.84
4576.00,0.84
4575.00,0.84
4574.00,0.84
4573.00,0.84
4572.00,0.85
4571.00,0.85
4570.00,0.85
4569.00,0.85
4568.00,0.85
4567.00,0.85
4566.00,0.85
4565.00,0.85
4564.00,0.85
4563.00,0.85
4562.00,0.85
4561.00,0.86
4560.00,0.86
4559.00,0.86
4558.00,0.86
4557.00,0.86
4556.00,0.86
4555.00,0.86
4554.00,0.86
4553.00,0.86
4552.00,0.86
4551.00,0.86
4550.00,0.86
4549.00,0.86
4548.00,0.86
4547.00,0.86
4546.00,0.86
4545.00,0.86
4544.00,0.86
4543.00,0.87
4542.00,0.87
4541.00,0.87
4540.00,0.87
4539.00,0.87
4538.00,0.87
4537.00,0.87
4536.00,0.87
4535.00,0.87
4534.00,0.87
4533.00,0.87
4532.00,0.87
4531.00,0.87
4530.00,0.87
4529.00,0.87
4528.00,0.88
4527.00,0.88
4526.00,0.88
4525.00,0.88
4524.00,0.88
4523.00,0.88
4522.00,0.88
4521.00,0.88
4520.00,0.88
4519.00,0.88
4518.00,0.88
4517.00,0.88
4516.00,0.88
4515.00,0.88
4514.00,0.88
4513.00,0.88
4512.00,0.88
4511.00,0.88
4510.00,0.88
4509.00,0.88
4508.00,0.88
4507.00,0.88
4506.00,0.88
4505.00,0.88
4504.00,0.88
4503.00,0.88
4502.00,0.88
4501.00,0.87
4500.00,0.87
4499.00,0.87
4498.00,0.87
4497.00,0.87
4496.00,0.87
4495.00,0.87
4494.00,0.87
4493.00,0.87
4492.00,0.87
4491.00,0.87
4490.00,0.87
4489.00,0.87
4488.00,0.87
4487.00,0.87
4486.00,0.87
4485.00,0.87
4484.00,0.87
4483.00,0.87
4482.00,0.87
4481.00,0.87
4480.00,0.87
4479.00,0.87
4478.00,0.87
4477.00,0.86
4476.00,0.86
4475.00,0.86
4474.00,0.86
4473.00,0.86
4472.00,0.86
4471.00,0.85
4470.00,0.85
4469.00,0.85
4468.00,0.85
4467.00,0.85
4466.00,0.85
4465.00,0.85
4464.00,0.84
4463.00,0.84
4462.00,0.84
4461.00,0.84
4460.00,0.84
4459.00,0.84
4458.00,0.83
4457.00,0.83
4456.00,0.83
4455.00,0.83
4454.00,0.83
4453.00,0.83
4452.00,0.82
4451.00,0.82
4450.00,0.82
4449.00,0.82
4448.00,0.81
4447.00,0.81
4446.00,0.81
4445.00,0.81
4444.00,0.80
4443.00,0.80
4442.00,0.80
4441.00,0.80
4440.00,0.79
4439.00,0.79
4438.00,0.79
4437.00,0.78
4436.00,0.78
4435.00,0.78
4434.00,0.78
4433.00,0.77
4432.00,0.77
4431.00,0.77
4430.00,0.77
4429.00,0.76
4428.00,0.76
4427.00,0.76
4426.00,0.76
4425.00,0.76
4424.00,0.75
4423.00,0.75
4422.00,0.75
4421.00,0.75
4420.00,0.75
4419.00,0.75
4418.00,0.75
4417.00,0.75
4416.00,0.75
4415.00,0.75
4414.00,0.75
4413.00,0.75
4412.00,0.75
4411.00,0.75
4410.00,0.75
4409.00,0.75
4408.00,0.75
4407.00,0.75
4406.00,0.75
4405.00,0.75
4404.00,0.75
4403.00,0.75
4402.00,0.75
4401.00,0.76
4400.00,0.76
4399.00,0.76
4398.00,0.76
4397.00,0.76
4396.00,0.76
4395.00,0.76
4394.00,0.76
4393.00,0.76
4392.00,0.77
4391.00,0.77
4390.00,0.77
4389.00,0.77
4388.00,0.77
4387.00,0.77
4386.00,0.77
4385.00,0.77
4384.00,0.77
4383.00,0.77
4382.00,0.77
4381.00,0.77
4380.00,0.77
4379.00,0.77
4378.00,0.77
4377.00,0.77
4376.00,0.77
4375.00,0.77
4374.00,0.77
4373.00,0.77
4372.00,0.77
4371.00,0.78
4370.00,0.78
4369.00,0.78
4368.00,0.78
4367.00,0.78
4366.00,0.78
4365.00,0.78
4364.00,0.78
4363.00,0.77
4362.00,0.77
4361.00,0.77
4360.00,0.77
4359.00,0.77
4358.00,0.77
4357.00,0.77
4356.00,0.77
4355.00,0.77
4354.00,0.77
4353.00,0.77
4352.00,0.77
4351.00,0.77
4350.00,0.77
4349.00,0.77
4348.00,0.77
4347.00,0.78
4346.00,0.78
4345.00,0.78
4344.00,0.78
4343.00,0.78
4342.00,0.78
4341.00,0.78
4340.00,0.78
4339.00,0.78
4338.00,0.78
4337.00,0.78
4336.00,0.78
4335.00,0.78
4334.00,0.78
4333.00,0.78
4332.00,0.79
4331.00,0.79
4330.00,0.79
4329.00,0.79
4328.00,0.79
4327.00,0.79
4326.00,0.79
4325.00,0.79
4324.00,0.80
4323.00,0.80
4322.00,0.80
4321.00,0.80
4320.00,0.80
4319.00,0.80
4318.00,0.80
4317.00,0.81
4316.00,0.81
4315.00,0.81
4314.00,0.81
4313.00,0.81
4312.00,0.81
4311.00,0.81
4310.00,0.81
4309.00,0.82
4308.00,0.82
4307.00,0.82
4306.00,0.82
4305.00,0.82
4304.00,0.82
4303.00,0.82
4302.00,0.82
4301.00,0.82
4300.00,0.83
4299.00,0.83
4298.00,0.83
4297.00,0.83
4296.00,0.83
4295.00,0.83
4294.00,0.83
4293.00,0.83
4292.00,0.83
4291.00,0.83
4290.00,0.83
4289.00,0.83
4288.00,0.83
4287.00,0.84
4286.00,0.84
4285.00,0.84
4284.00,0.84
4283.00,0.84
4282.00,0.84
4281.00,0.84
4280.00,0.84
4279.00,0.84
4278.00,0.84
4277.00,0.84
4276.00,0.83
4275.00,0.83
4274.00,0.83
4273.00,0.83
4272.00,0.83
4271.00,0.83
4270.00,0.83
4269.00,0.83
4268.00,0.83
4267.00,0.83
4266.00,0.83
4265.00,0.83
4264.00,0.83
4263.00,0.83
4262.00,0.83
4261.00,0.83
4260.00,0.83
4259.00,0.83
4258.00,0.83
4257.00,0.83
4256.00,0.83
4255.00,0.83
4254.00,0.83
4253.00,0.83
4252.00,0.83
4251.00,0.83
4250.00,0.83
4249.00,0.83
4248.00,0.83
4247.00,0.83
4246.00,0.83
4245.00,0.83
4244.00,0.83
4243.00,0.83
4242.00,0.84
4241.00,0.84
4240.00,0.84
4239.00,0.84
4238.00,0.84
4237.00,0.84
4236.00,0.84
4235.00,0.84
4234.00,0.85
4233.00,0.85
4232.00,0.85
4231.00,0.85
4230.00,0.85
4229.00,0.85
4228.00,0.85
4227.00,0.85
4226.00,0.85
4225.00,0.85
4224.00,0.85
4223.00,0.85
4222.00,0.85
4221.00,0.85
4220.00,0.85
4219.00,0.85
4218.00,0.85
4217.00,0.85
4216.00,0.85
4215.00,0.85
4214.00,0.85
4213.00,0.85
4212.00,0.85
4211.00,0.85
4210.00,0.85
4209.00,0.85
4208.00,0.85
4207.00,0.85
4206.00,0.85
4205.00,0.85
4204.00,0.85
4203.00,0.85
4202.00,0.85
4201.00,0.85
4200.00,0.85
4199.00,0.85
4198.00,0.85
4197.00,0.85
4196.00,0.85
4195.00,0.85
4194.00,0.85
4193.00,0.86
4192.00,0.86
4191.00,0.86
4190.00,0.86
4189.00,0.86
4188.00,0.86
4187.00,0.86
4186.00,0.86
4185.00,0.86
4184.00,0.86
4183.00,0.86
4182.00,0.86
4181.00,0.86
4180.00,0.86
4179.00,0.86
4178.00,0.86
4177.00,0.86
4176.00,0.86
4175.00,0.86
4174.00,0.86
4173.00,0.86
4172.00,0.86
4171.00,0.86
4170.00,0.86
4169.00,0.86
4168.00,0.86
4167.00,0.86
4166.00,0.86
4165.00,0.86
4164.00,0.86
4163.00,0.86
4162.00,0.86
4161.00,0.86
4160.00,0.86
4159.00,0.86
4158.00,0.86
4157.00,0.86
4156.00,0.86
4155.00,0.86
4154.00,0.86
4153.00,0.86
4152.00,0.86
4151.00,0.87
4150.00,0.87
4149.00,0.87
4148.00,0.87
4147.00,0.87
4146.00,0.87
4145.00,0.87
4144.00,0.87
4143.00,0.87
4142.00,0.87
4141.00,0.87
4140.00,0.87
4139.00,0.87
4138.00,0.87
4137.00,0.87
4136.00,0.87
4135.00,0.87
4134.00,0.87
4133.00,0.87
4132.00,0.87
4131.00,0.87
4130.00,0.87
4129.00,0.87
4128.00,0.87
4127.00,0.87
4126.00,0.87
4125.00,0.87
4124.00,0.87
4123.00,0.87
4122.00,0.87
4121.00,0.87
4120.00,0.87
4119.00,0.87
4118.00,0.87
4117.00,0.87
4116.00,0.87
4115.00,0.87
4114.00,0.87
4113.00,0.87
4112.00,0.87
4111.00,0.87
4110.00,0.87
4109.00,0.87
4108.00,0.87
4107.00,0.87
4106.00,0.87
4105.00,0.87
4104.00,0.87
4103.00,0.87
4102.00,0.87
4101.00,0.87
4100.00,0.88
4099.00,0.88
4098.00,0.88
4097.00,0.88
4096.00,0.88
4095.00,0.88
4094.00,0.88
4093.00,0.88
4092.00,0.88
4091.00,0.88
4090.00,0.88
4089.00,0.88
4088.00,0.88
4087.00,0.88
4086.00,0.88
4085.00,0.88
4084.00,0.89
4083.00,0.89
4082.00,0.89
4081.00,0.89
4080.00,0.89
4079.00,0.89
4078.00,0.89
4077.00,0.89
4076.00,0.89
4075.00,0.89
4074.00,0.89
4073.00,0.89
4072.00,0.89
4071.00,0.89
4070.00,0.89
4069.00,0.89
4068.00,0.89
4067.00,0.89
4066.00,0.89
4065.00,0.89
4064.00,0.89
4063.00,0.89
4062.00,0.89
4061.00,0.89
4060.00,0.89
4059.00,0.89
4058.00,0.89
4057.00,0.89
4056.00,0.90
4055.00,0.90
4054.00,0.90
4053.00,0.90
4052.00,0.90
4051.00,0.90
4050.00,0.90
4049.00,0.90
4048.00,0.91
4047.00,0.91
4046.00,0.91
4045.00,0.91
4044.00,0.91
4043.00,0.91
4042.00,0.91
4041.00,0.91
4040.00,0.91
4039.00,0.91
4038.00,0.91
4037.00,0.91
4036.00,0.91
4035.00,0.91
4034.00,0.91
4033.00,0.91
4032.00,0.91
4031.00,0.91
4030.00,0.91
4029.00,0.91
4028.00,0.91
4027.00,0.91
4026.00,0.91
4025.00,0.91
4024.00,0.91
4023.00,0.91
4022.00,0.91
4021.00,0.91
4020.00,0.91
4019.00,0.91
4018.00,0.91
4017.00,0.91
4016.00,0.91
4015.00,0.91
4014.00,0.92
4013.00,0.92
4012.00,0.92
4011.00,0.92
4010.00,0.92
4009.00,0.92
4008.00,0.92
4007.00,0.92
4006.00,0.92
4005.00,0.92
4004.00,0.92
4003.00,0.93
4002.00,0.93
4001.00,0.93
4000.00,0.93
