创建为新数据集,样品 688 用户 Administrator 日期 星期四, 七月 19 2018
cm-1,%T
10000.00,0.93
9999.00,0.93
9998.00,0.93
9997.00,0.93
9996.00,0.94
9995.00,0.94
9994.00,0.94
9993.00,0.94
9992.00,0.93
9991.00,0.93
9990.00,0.93
9989.00,0.93
9988.00,0.93
9987.00,0.93
9986.00,0.93
9985.00,0.93
9984.00,0.93
9983.00,0.93
9982.00,0.92
9981.00,0.92
9980.00,0.92
9979.00,0.92
9978.00,0.92
9977.00,0.92
9976.00,0.92
9975.00,0.92
9974.00,0.92
9973.00,0.91
9972.00,0.91
9971.00,0.91
9970.00,0.91
9969.00,0.91
9968.00,0.91
9967.00,0.91
9966.00,0.91
9965.00,0.90
9964.00,0.90
9963.00,0.90
9962.00,0.90
9961.00,0.90
9960.00,0.90
9959.00,0.90
9958.00,0.90
9957.00,0.90
9956.00,0.90
9955.00,0.90
9954.00,0.90
9953.00,0.90
9952.00,0.90
9951.00,0.90
9950.00,0.90
9949.00,0.90
9948.00,0.90
9947.00,0.91
9946.00,0.91
9945.00,0.91
9944.00,0.91
9943.00,0.91
9942.00,0.92
9941.00,0.92
9940.00,0.92
9939.00,0.92
9938.00,0.93
9937.00,0.93
9936.00,0.93
9935.00,0.93
9934.00,0.93
9933.00,0.93
9932.00,0.93
9931.00,0.93
9930.00,0.93
9929.00,0.93
9928.00,0.93
9927.00,0.93
9926.00,0.93
9925.00,0.92
9924.00,0.92
9923.00,0.92
9922.00,0.91
9921.00,0.91
9920.00,0.91
9919.00,0.91
9918.00,0.90
9917.00,0.90
9916.00,0.90
9915.00,0.90
9914.00,0.90
9913.00,0.90
9912.00,0.90
9911.00,0.90
9910.00,0.90
9909.00,0.90
9908.00,0.91
9907.00,0.91
9906.00,0.91
9905.00,0.91
9904.00,0.91
9903.00,0.91
9902.00,0.92
9901.00,0.92
9900.00,0.92
9899.00,0.92
9898.00,0.92
9897.00,0.92
9896.00,0.92
9895.00,0.92
9894.00,0.92
9893.00,0.92
9892.00,0.92
9891.00,0.92
9890.00,0.92
9889.00,0.92
9888.00,0.92
9887.00,0.92
9886.00,0.92
9885.00,0.92
9884.00,0.92
9883.00,0.92
9882.00,0.92
9881.00,0.92
9880.00,0.92
9879.00,0.92
9878.00,0.92
9877.00,0.91
9876.00,0.91
9875.00,0.91
9874.00,0.91
9873.00,0.91
9872.00,0.90
9871.00,0.90
9870.00,0.90
9869.00,0.90
9868.00,0.90
9867.00,0.90
9866.00,0.90
9865.00,0.90
9864.00,0.90
9863.00,0.90
9862.00,0.91
9861.00,0.91
9860.00,0.91
9859.00,0.91
9858.00,0.91
9857.00,0.92
9856.00,0.92
9855.00,0.92
9854.00,0.92
9853.00,0.92
9852.00,0.92
9851.00,0.92
9850.00,0.92
9849.00,0.92
9848.00,0.92
9847.00,0.92
9846.00,0.92
9845.00,0.92
9844.00,0.92
9843.00,0.92
9842.00,0.92
9841.00,0.92
9840.00,0.92
9839.00,0.92
9838.00,0.92
9837.00,0.92
9836.00,0.92
9835.00,0.92
9834.00,0.92
9833.00,0.92
9832.00,0.92
9831.00,0.92
9830.00,0.92
9829.00,0.92
9828.00,0.91
9827.00,0.91
9826.00,0.91
9825.00,0.91
9824.00,0.91
9823.00,0.91
9822.00,0.90
9821.00,0.90
9820.00,0.90
9819.00,0.90
9818.00,0.90
9817.00,0.90
9816.00,0.90
9815.00,0.90
9814.00,0.90
9813.00,0.90
9812.00,0.90
9811.00,0.90
9810.00,0.90
9809.00,0.90
9808.00,0.90
9807.00,0.91
9806.00,0.91
9805.00,0.91
9804.00,0.91
9803.00,0.91
9802.00,0.91
9801.00,0.91
9800.00,0.91
9799.00,0.91
9798.00,0.91
9797.00,0.92
9796.00,0.92
9795.00,0.92
9794.00,0.92
9793.00,0.92
9792.00,0.92
9791.00,0.92
9790.00,0.92
9789.00,0.93
9788.00,0.92
9787.00,0.92
9786.00,0.92
9785.00,0.92
9784.00,0.92
9783.00,0.92
9782.00,0.92
9781.00,0.91
9780.00,0.91
9779.00,0.91
9778.00,0.91
9777.00,0.90
9776.00,0.90
9775.00,0.90
9774.00,0.90
9773.00,0.90
9772.00,0.90
9771.00,0.90
9770.00,0.90
9769.00,0.90
9768.00,0.91
9767.00,0.91
9766.00,0.91
9765.00,0.91
9764.00,0.92
9763.00,0.92
9762.00,0.92
9761.00,0.93
9760.00,0.93
9759.00,0.93
9758.00,0.93
9757.00,0.93
9756.00,0.93
9755.00,0.93
9754.00,0.93
9753.00,0.93
9752.00,0.93
9751.00,0.93
9750.00,0.93
9749.00,0.93
9748.00,0.93
9747.00,0.93
9746.00,0.92
9745.00,0.92
9744.00,0.92
9743.00,0.92
9742.00,0.92
9741.00,0.91
9740.00,0.91
9739.00,0.91
9738.00,0.91
9737.00,0.91
9736.00,0.90
9735.00,0.90
9734.00,0.90
9733.00,0.90
9732.00,0.90
9731.00,0.90
9730.00,0.90
9729.00,0.90
9728.00,0.90
9727.00,0.90
9726.00,0.90
9725.00,0.90
9724.00,0.90
9723.00,0.90
9722.00,0.90
9721.00,0.91
9720.00,0.91
9719.00,0.91
9718.00,0.91
9717.00,0.91
9716.00,0.91
9715.00,0.91
9714.00,0.92
9713.00,0.92
9712.00,0.92
9711.00,0.92
9710.00,0.92
9709.00,0.92
9708.00,0.92
9707.00,0.92
9706.00,0.92
9705.00,0.92
9704.00,0.92
9703.00,0.92
9702.00,0.92
9701.00,0.92
9700.00,0.92
9699.00,0.92
9698.00,0.92
9697.00,0.92
9696.00,0.91
9695.00,0.91
9694.00,0.91
9693.00,0.91
9692.00,0.91
9691.00,0.91
9690.00,0.91
9689.00,0.91
9688.00,0.91
9687.00,0.91
9686.00,0.91
9685.00,0.91
9684.00,0.91
9683.00,0.91
9682.00,0.91
9681.00,0.91
9680.00,0.92
9679.00,0.92
9678.00,0.92
9677.00,0.92
9676.00,0.92
9675.00,0.92
9674.00,0.92
9673.00,0.92
9672.00,0.92
9671.00,0.92
9670.00,0.92
9669.00,0.92
9668.00,0.92
9667.00,0.91
9666.00,0.91
9665.00,0.91
9664.00,0.91
9663.00,0.91
9662.00,0.91
9661.00,0.91
9660.00,0.91
9659.00,0.92
9658.00,0.92
9657.00,0.92
9656.00,0.92
9655.00,0.92
9654.00,0.92
9653.00,0.92
9652.00,0.92
9651.00,0.92
9650.00,0.92
9649.00,0.92
9648.00,0.92
9647.00,0.92
9646.00,0.92
9645.00,0.92
9644.00,0.92
9643.00,0.91
9642.00,0.91
9641.00,0.91
9640.00,0.91
9639.00,0.91
9638.00,0.91
9637.00,0.90
9636.00,0.90
9635.00,0.90
9634.00,0.90
9633.00,0.90
9632.00,0.90
9631.00,0.90
9630.00,0.90
9629.00,0.90
9628.00,0.90
9627.00,0.89
9626.00,0.89
9625.00,0.89
9624.00,0.89
9623.00,0.89
9622.00,0.89
9621.00,0.89
9620.00,0.89
9619.00,0.89
9618.00,0.89
9617.00,0.88
9616.00,0.88
9615.00,0.88
9614.00,0.88
9613.00,0.88
9612.00,0.88
9611.00,0.88
9610.00,0.88
9609.00,0.88
9608.00,0.89
9607.00,0.89
9606.00,0.89
9605.00,0.89
9604.00,0.89
9603.00,0.89
9602.00,0.89
9601.00,0.89
9600.00,0.89
9599.00,0.89
9598.00,0.89
9597.00,0.89
9596.00,0.89
9595.00,0.89
9594.00,0.89
9593.00,0.89
9592.00,0.88
9591.00,0.88
9590.00,0.88
9589.00,0.88
9588.00,0.88
9587.00,0.88
9586.00,0.88
9585.00,0.88
9584.00,0.88
9583.00,0.89
9582.00,0.89
9581.00,0.89
9580.00,0.89
9579.00,0.89
9578.00,0.90
9577.00,0.90
9576.00,0.90
9575.00,0.90
9574.00,0.91
9573.00,0.91
9572.00,0.91
9571.00,0.91
9570.00,0.91
9569.00,0.91
9568.00,0.91
9567.00,0.91
9566.00,0.91
9565.00,0.91
9564.00,0.91
9563.00,0.91
9562.00,0.91
9561.00,0.91
9560.00,0.91
9559.00,0.90
9558.00,0.90
9557.00,0.90
9556.00,0.90
9555.00,0.90
9554.00,0.90
9553.00,0.90
9552.00,0.90
9551.00,0.90
9550.00,0.90
9549.00,0.90
9548.00,0.90
9547.00,0.90
9546.00,0.91
9545.00,0.91
9544.00,0.91
9543.00,0.90
9542.00,0.90
9541.00,0.90
9540.00,0.90
9539.00,0.90
9538.00,0.90
9537.00,0.90
9536.00,0.91
9535.00,0.91
9534.00,0.91
9533.00,0.91
9532.00,0.91
9531.00,0.91
9530.00,0.91
9529.00,0.91
9528.00,0.91
9527.00,0.92
9526.00,0.92
9525.00,0.92
9524.00,0.92
9523.00,0.92
9522.00,0.92
9521.00,0.92
9520.00,0.93
9519.00,0.93
9518.00,0.93
9517.00,0.93
9516.00,0.93
9515.00,0.93
9514.00,0.93
9513.00,0.93
9512.00,0.93
9511.00,0.93
9510.00,0.93
9509.00,0.93
9508.00,0.93
9507.00,0.93
9506.00,0.93
9505.00,0.92
9504.00,0.92
9503.00,0.92
9502.00,0.92
9501.00,0.92
9500.00,0.92
9499.00,0.92
9498.00,0.92
9497.00,0.92
9496.00,0.92
9495.00,0.91
9494.00,0.91
9493.00,0.91
9492.00,0.91
9491.00,0.91
9490.00,0.91
9489.00,0.91
9488.00,0.91
9487.00,0.90
9486.00,0.90
9485.00,0.90
9484.00,0.90
9483.00,0.90
9482.00,0.90
9481.00,0.90
9480.00,0.90
9479.00,0.90
9478.00,0.90
9477.00,0.90
9476.00,0.90
9475.00,0.90
9474.00,0.91
9473.00,0.91
9472.00,0.91
9471.00,0.91
9470.00,0.91
9469.00,0.91
9468.00,0.91
9467.00,0.92
9466.00,0.92
9465.00,0.92
9464.00,0.92
9463.00,0.92
9462.00,0.92
9461.00,0.92
9460.00,0.92
9459.00,0.92
9458.00,0.92
9457.00,0.92
9456.00,0.92
9455.00,0.91
9454.00,0.91
9453.00,0.91
9452.00,0.91
9451.00,0.91
9450.00,0.90
9449.00,0.90
9448.00,0.90
9447.00,0.90
9446.00,0.90
9445.00,0.89
9444.00,0.89
9443.00,0.89
9442.00,0.89
9441.00,0.89
9440.00,0.89
9439.00,0.90
9438.00,0.90
9437.00,0.90
9436.00,0.90
9435.00,0.90
9434.00,0.90
9433.00,0.91
9432.00,0.91
9431.00,0.91
9430.00,0.91
9429.00,0.91
9428.00,0.91
9427.00,0.92
9426.00,0.92
9425.00,0.92
9424.00,0.92
9423.00,0.92
9422.00,0.92
9421.00,0.92
9420.00,0.92
9419.00,0.92
9418.00,0.92
9417.00,0.92
9416.00,0.92
9415.00,0.92
9414.00,0.92
9413.00,0.91
9412.00,0.91
9411.00,0.91
9410.00,0.91
9409.00,0.91
9408.00,0.91
9407.00,0.91
9406.00,0.91
9405.00,0.91
9404.00,0.91
9403.00,0.91
9402.00,0.91
9401.00,0.90
9400.00,0.90
9399.00,0.90
9398.00,0.90
9397.00,0.91
9396.00,0.91
9395.00,0.91
9394.00,0.91
9393.00,0.91
9392.00,0.91
9391.00,0.91
9390.00,0.91
9389.00,0.91
9388.00,0.91
9387.00,0.91
9386.00,0.91
9385.00,0.91
9384.00,0.91
9383.00,0.91
9382.00,0.91
9381.00,0.91
9380.00,0.91
9379.00,0.91
9378.00,0.91
9377.00,0.91
9376.00,0.91
9375.00,0.91
9374.00,0.91
9373.00,0.90
9372.00,0.90
9371.00,0.90
9370.00,0.90
9369.00,0.90
9368.00,0.90
9367.00,0.90
9366.00,0.90
9365.00,0.90
9364.00,0.90
9363.00,0.90
9362.00,0.90
9361.00,0.90
9360.00,0.90
9359.00,0.90
9358.00,0.90
9357.00,0.90
9356.00,0.90
9355.00,0.90
9354.00,0.90
9353.00,0.90
9352.00,0.90
9351.00,0.90
9350.00,0.91
9349.00,0.91
9348.00,0.91
9347.00,0.91
9346.00,0.91
9345.00,0.91
9344.00,0.91
9343.00,0.91
9342.00,0.92
9341.00,0.92
9340.00,0.92
9339.00,0.92
9338.00,0.92
9337.00,0.92
9336.00,0.92
9335.00,0.92
9334.00,0.92
9333.00,0.92
9332.00,0.91
9331.00,0.91
9330.00,0.91
9329.00,0.91
9328.00,0.91
9327.00,0.91
9326.00,0.90
9325.00,0.90
9324.00,0.90
9323.00,0.90
9322.00,0.90
9321.00,0.90
9320.00,0.90
9319.00,0.89
9318.00,0.89
9317.00,0.89
9316.00,0.89
9315.00,0.89
9314.00,0.89
9313.00,0.89
9312.00,0.89
9311.00,0.89
9310.00,0.89
9309.00,0.89
9308.00,0.89
9307.00,0.89
9306.00,0.89
9305.00,0.89
9304.00,0.89
9303.00,0.89
9302.00,0.89
9301.00,0.89
9300.00,0.90
9299.00,0.90
9298.00,0.90
9297.00,0.90
9296.00,0.90
9295.00,0.90
9294.00,0.91
9293.00,0.91
9292.00,0.91
9291.00,0.91
9290.00,0.91
9289.00,0.91
9288.00,0.91
9287.00,0.91
9286.00,0.91
9285.00,0.91
9284.00,0.91
9283.00,0.91
9282.00,0.91
9281.00,0.91
9280.00,0.91
9279.00,0.91
9278.00,0.91
9277.00,0.91
9276.00,0.92
9275.00,0.92
9274.00,0.92
9273.00,0.92
9272.00,0.92
9271.00,0.92
9270.00,0.92
9269.00,0.92
9268.00,0.92
9267.00,0.92
9266.00,0.93
9265.00,0.93
9264.00,0.92
9263.00,0.92
9262.00,0.92
9261.00,0.92
9260.00,0.92
9259.00,0.92
9258.00,0.92
9257.00,0.92
9256.00,0.91
9255.00,0.91
9254.00,0.91
9253.00,0.91
9252.00,0.91
9251.00,0.90
9250.00,0.90
9249.00,0.90
9248.00,0.90
9247.00,0.90
9246.00,0.90
9245.00,0.90
9244.00,0.89
9243.00,0.89
9242.00,0.89
9241.00,0.89
9240.00,0.89
9239.00,0.89
9238.00,0.89
9237.00,0.89
9236.00,0.90
9235.00,0.90
9234.00,0.90
9233.00,0.90
9232.00,0.90
9231.00,0.91
9230.00,0.91
9229.00,0.91
9228.00,0.92
9227.00,0.92
9226.00,0.92
9225.00,0.92
9224.00,0.93
9223.00,0.93
9222.00,0.93
9221.00,0.93
9220.00,0.93
9219.00,0.93
9218.00,0.93
9217.00,0.93
9216.00,0.93
9215.00,0.93
9214.00,0.93
9213.00,0.93
9212.00,0.93
9211.00,0.92
9210.00,0.92
9209.00,0.92
9208.00,0.92
9207.00,0.92
9206.00,0.91
9205.00,0.91
9204.00,0.91
9203.00,0.91
9202.00,0.91
9201.00,0.91
9200.00,0.91
9199.00,0.90
9198.00,0.90
9197.00,0.90
9196.00,0.90
9195.00,0.90
9194.00,0.90
9193.00,0.90
9192.00,0.90
9191.00,0.90
9190.00,0.90
9189.00,0.90
9188.00,0.90
9187.00,0.90
9186.00,0.90
9185.00,0.90
9184.00,0.90
9183.00,0.90
9182.00,0.90
9181.00,0.90
9180.00,0.91
9179.00,0.91
9178.00,0.91
9177.00,0.91
9176.00,0.91
9175.00,0.91
9174.00,0.91
9173.00,0.91
9172.00,0.91
9171.00,0.91
9170.00,0.91
9169.00,0.91
9168.00,0.91
9167.00,0.91
9166.00,0.91
9165.00,0.91
9164.00,0.91
9163.00,0.92
9162.00,0.92
9161.00,0.92
9160.00,0.92
9159.00,0.92
9158.00,0.92
9157.00,0.91
9156.00,0.91
9155.00,0.91
9154.00,0.91
9153.00,0.91
9152.00,0.91
9151.00,0.91
9150.00,0.91
9149.00,0.91
9148.00,0.91
9147.00,0.91
9146.00,0.91
9145.00,0.91
9144.00,0.91
9143.00,0.91
9142.00,0.91
9141.00,0.91
9140.00,0.91
9139.00,0.91
9138.00,0.92
9137.00,0.92
9136.00,0.92
9135.00,0.92
9134.00,0.92
9133.00,0.92
9132.00,0.92
9131.00,0.92
9130.00,0.92
9129.00,0.92
9128.00,0.92
9127.00,0.92
9126.00,0.92
9125.00,0.92
9124.00,0.92
9123.00,0.93
9122.00,0.93
9121.00,0.93
9120.00,0.93
9119.00,0.93
9118.00,0.93
9117.00,0.93
9116.00,0.93
9115.00,0.93
9114.00,0.93
9113.00,0.93
9112.00,0.93
9111.00,0.93
9110.00,0.93
9109.00,0.93
9108.00,0.93
9107.00,0.93
9106.00,0.93
9105.00,0.93
9104.00,0.93
9103.00,0.93
9102.00,0.93
9101.00,0.93
9100.00,0.93
9099.00,0.93
9098.00,0.93
9097.00,0.93
9096.00,0.93
9095.00,0.93
9094.00,0.93
9093.00,0.93
9092.00,0.93
9091.00,0.93
9090.00,0.93
9089.00,0.93
9088.00,0.93
9087.00,0.93
9086.00,0.93
9085.00,0.93
9084.00,0.93
9083.00,0.93
9082.00,0.93
9081.00,0.93
9080.00,0.93
9079.00,0.93
9078.00,0.93
9077.00,0.93
9076.00,0.92
9075.00,0.92
9074.00,0.92
9073.00,0.92
9072.00,0.92
9071.00,0.92
9070.00,0.92
9069.00,0.92
9068.00,0.91
9067.00,0.91
9066.00,0.91
9065.00,0.91
9064.00,0.91
9063.00,0.91
9062.00,0.91
9061.00,0.91
9060.00,0.91
9059.00,0.91
9058.00,0.91
9057.00,0.91
9056.00,0.91
9055.00,0.91
9054.00,0.91
9053.00,0.91
9052.00,0.91
9051.00,0.91
9050.00,0.91
9049.00,0.91
9048.00,0.91
9047.00,0.91
9046.00,0.91
9045.00,0.91
9044.00,0.91
9043.00,0.91
9042.00,0.91
9041.00,0.91
9040.00,0.91
9039.00,0.91
9038.00,0.91
9037.00,0.91
9036.00,0.91
9035.00,0.91
9034.00,0.91
9033.00,0.91
9032.00,0.91
9031.00,0.91
9030.00,0.91
9029.00,0.91
9028.00,0.91
9027.00,0.92
9026.00,0.92
9025.00,0.92
9024.00,0.92
9023.00,0.92
9022.00,0.92
9021.00,0.92
9020.00,0.93
9019.00,0.93
9018.00,0.93
9017.00,0.93
9016.00,0.93
9015.00,0.93
9014.00,0.93
9013.00,0.93
9012.00,0.93
9011.00,0.93
9010.00,0.93
9009.00,0.93
9008.00,0.93
9007.00,0.93
9006.00,0.93
9005.00,0.93
9004.00,0.93
9003.00,0.93
9002.00,0.93
9001.00,0.93
9000.00,0.93
8999.00,0.93
8998.00,0.92
8997.00,0.92
8996.00,0.92
8995.00,0.92
8994.00,0.92
8993.00,0.92
8992.00,0.92
8991.00,0.92
8990.00,0.92
8989.00,0.91
8988.00,0.91
8987.00,0.91
8986.00,0.91
8985.00,0.91
8984.00,0.91
8983.00,0.91
8982.00,0.91
8981.00,0.91
8980.00,0.91
8979.00,0.91
8978.00,0.91
8977.00,0.91
8976.00,0.91
8975.00,0.91
8974.00,0.91
8973.00,0.91
8972.00,0.91
8971.00,0.91
8970.00,0.92
8969.00,0.92
8968.00,0.92
8967.00,0.92
8966.00,0.92
8965.00,0.92
8964.00,0.92
8963.00,0.92
8962.00,0.92
8961.00,0.92
8960.00,0.92
8959.00,0.92
8958.00,0.91
8957.00,0.91
8956.00,0.91
8955.00,0.91
8954.00,0.91
8953.00,0.91
8952.00,0.91
8951.00,0.91
8950.00,0.91
8949.00,0.91
8948.00,0.91
8947.00,0.92
8946.00,0.92
8945.00,0.92
8944.00,0.92
8943.00,0.92
8942.00,0.92
8941.00,0.92
8940.00,0.92
8939.00,0.92
8938.00,0.92
8937.00,0.92
8936.00,0.92
8935.00,0.92
8934.00,0.92
8933.00,0.92
8932.00,0.92
8931.00,0.92
8930.00,0.92
8929.00,0.92
8928.00,0.92
8927.00,0.92
8926.00,0.91
8925.00,0.91
8924.00,0.91
8923.00,0.92
8922.00,0.92
8921.00,0.92
8920.00,0.92
8919.00,0.92
8918.00,0.92
8917.00,0.92
8916.00,0.92
8915.00,0.92
8914.00,0.92
8913.00,0.92
8912.00,0.92
8911.00,0.92
8910.00,0.93
8909.00,0.93
8908.00,0.93
8907.00,0.93
8906.00,0.92
8905.00,0.92
8904.00,0.92
8903.00,0.92
8902.00,0.92
8901.00,0.92
8900.00,0.92
8899.00,0.92
8898.00,0.92
8897.00,0.92
8896.00,0.92
8895.00,0.92
8894.00,0.92
8893.00,0.92
8892.00,0.92
8891.00,0.92
8890.00,0.92
8889.00,0.92
8888.00,0.92
8887.00,0.92
8886.00,0.92
8885.00,0.92
8884.00,0.92
8883.00,0.92
8882.00,0.92
8881.00,0.92
8880.00,0.92
8879.00,0.92
8878.00,0.92
8877.00,0.92
8876.00,0.92
8875.00,0.92
8874.00,0.92
8873.00,0.92
8872.00,0.92
8871.00,0.92
8870.00,0.92
8869.00,0.91
8868.00,0.91
8867.00,0.91
8866.00,0.91
8865.00,0.91
8864.00,0.91
8863.00,0.91
8862.00,0.91
8861.00,0.91
8860.00,0.91
8859.00,0.90
8858.00,0.90
8857.00,0.90
8856.00,0.90
8855.00,0.90
8854.00,0.90
8853.00,0.90
8852.00,0.90
8851.00,0.90
8850.00,0.90
8849.00,0.89
8848.00,0.89
8847.00,0.89
8846.00,0.89
8845.00,0.89
8844.00,0.89
8843.00,0.89
8842.00,0.89
8841.00,0.90
8840.00,0.90
8839.00,0.90
8838.00,0.90
8837.00,0.90
8836.00,0.90
8835.00,0.90
8834.00,0.90
8833.00,0.90
8832.00,0.90
8831.00,0.90
8830.00,0.91
8829.00,0.91
8828.00,0.91
8827.00,0.91
8826.00,0.91
8825.00,0.91
8824.00,0.91
8823.00,0.91
8822.00,0.91
8821.00,0.91
8820.00,0.91
8819.00,0.91
8818.00,0.91
8817.00,0.91
8816.00,0.91
8815.00,0.91
8814.00,0.91
8813.00,0.91
8812.00,0.91
8811.00,0.91
8810.00,0.91
8809.00,0.91
8808.00,0.91
8807.00,0.91
8806.00,0.91
8805.00,0.91
8804.00,0.91
8803.00,0.90
8802.00,0.90
8801.00,0.90
8800.00,0.90
8799.00,0.90
8798.00,0.90
8797.00,0.90
8796.00,0.90
8795.00,0.90
8794.00,0.90
8793.00,0.89
8792.00,0.89
8791.00,0.89
8790.00,0.89
8789.00,0.89
8788.00,0.89
8787.00,0.89
8786.00,0.89
8785.00,0.89
8784.00,0.89
8783.00,0.89
8782.00,0.89
8781.00,0.89
8780.00,0.89
8779.00,0.89
8778.00,0.89
8777.00,0.89
8776.00,0.89
8775.00,0.89
8774.00,0.89
8773.00,0.89
8772.00,0.89
8771.00,0.89
8770.00,0.89
8769.00,0.89
8768.00,0.89
8767.00,0.89
8766.00,0.89
8765.00,0.89
8764.00,0.89
8763.00,0.88
8762.00,0.88
8761.00,0.88
8760.00,0.88
8759.00,0.88
8758.00,0.88
8757.00,0.88
8756.00,0.88
8755.00,0.88
8754.00,0.88
8753.00,0.88
8752.00,0.88
8751.00,0.88
8750.00,0.88
8749.00,0.88
8748.00,0.88
8747.00,0.88
8746.00,0.88
8745.00,0.87
8744.00,0.87
8743.00,0.87
8742.00,0.87
8741.00,0.87
8740.00,0.86
8739.00,0.86
8738.00,0.86
8737.00,0.86
8736.00,0.86
8735.00,0.86
8734.00,0.86
8733.00,0.86
8732.00,0.86
8731.00,0.86
8730.00,0.86
8729.00,0.86
8728.00,0.86
8727.00,0.86
8726.00,0.87
8725.00,0.87
8724.00,0.87
8723.00,0.87
8722.00,0.87
8721.00,0.87
8720.00,0.87
8719.00,0.87
8718.00,0.87
8717.00,0.87
8716.00,0.87
8715.00,0.87
8714.00,0.87
8713.00,0.87
8712.00,0.87
8711.00,0.87
8710.00,0.87
8709.00,0.87
8708.00,0.87
8707.00,0.87
8706.00,0.87
8705.00,0.87
8704.00,0.87
8703.00,0.87
8702.00,0.87
8701.00,0.87
8700.00,0.87
8699.00,0.87
8698.00,0.87
8697.00,0.87
8696.00,0.87
8695.00,0.87
8694.00,0.87
8693.00,0.87
8692.00,0.87
8691.00,0.87
8690.00,0.87
8689.00,0.87
8688.00,0.87
8687.00,0.87
8686.00,0.87
8685.00,0.87
8684.00,0.87
8683.00,0.87
8682.00,0.87
8681.00,0.87
8680.00,0.87
8679.00,0.87
8678.00,0.87
8677.00,0.88
8676.00,0.88
8675.00,0.88
8674.00,0.88
8673.00,0.88
8672.00,0.88
8671.00,0.88
8670.00,0.88
8669.00,0.88
8668.00,0.88
8667.00,0.88
8666.00,0.88
8665.00,0.88
8664.00,0.88
8663.00,0.88
8662.00,0.88
8661.00,0.88
8660.00,0.88
8659.00,0.87
8658.00,0.87
8657.00,0.87
8656.00,0.87
8655.00,0.87
8654.00,0.87
8653.00,0.86
8652.00,0.86
8651.00,0.86
8650.00,0.86
8649.00,0.86
8648.00,0.86
8647.00,0.86
8646.00,0.86
8645.00,0.86
8644.00,0.86
8643.00,0.86
8642.00,0.86
8641.00,0.86
8640.00,0.86
8639.00,0.86
8638.00,0.86
8637.00,0.86
8636.00,0.86
8635.00,0.86
8634.00,0.86
8633.00,0.86
8632.00,0.86
8631.00,0.86
8630.00,0.86
8629.00,0.86
8628.00,0.86
8627.00,0.86
8626.00,0.86
8625.00,0.86
8624.00,0.86
8623.00,0.86
8622.00,0.86
8621.00,0.86
8620.00,0.86
8619.00,0.86
8618.00,0.85
8617.00,0.85
8616.00,0.85
8615.00,0.85
8614.00,0.85
8613.00,0.85
8612.00,0.85
8611.00,0.85
8610.00,0.85
8609.00,0.85
8608.00,0.85
8607.00,0.85
8606.00,0.85
8605.00,0.85
8604.00,0.85
8603.00,0.86
8602.00,0.86
8601.00,0.86
8600.00,0.86
8599.00,0.86
8598.00,0.86
8597.00,0.86
8596.00,0.86
8595.00,0.86
8594.00,0.86
8593.00,0.86
8592.00,0.86
8591.00,0.86
8590.00,0.86
8589.00,0.86
8588.00,0.86
8587.00,0.86
8586.00,0.86
8585.00,0.86
8584.00,0.86
8583.00,0.86
8582.00,0.86
8581.00,0.86
8580.00,0.86
8579.00,0.86
8578.00,0.86
8577.00,0.86
8576.00,0.86
8575.00,0.86
8574.00,0.86
8573.00,0.86
8572.00,0.86
8571.00,0.85
8570.00,0.85
8569.00,0.85
8568.00,0.85
8567.00,0.85
8566.00,0.85
8565.00,0.85
8564.00,0.84
8563.00,0.84
8562.00,0.84
8561.00,0.84
8560.00,0.84
8559.00,0.83
8558.00,0.83
8557.00,0.83
8556.00,0.83
8555.00,0.83
8554.00,0.83
8553.00,0.83
8552.00,0.83
8551.00,0.83
8550.00,0.83
8549.00,0.84
8548.00,0.84
8547.00,0.84
8546.00,0.84
8545.00,0.84
8544.00,0.84
8543.00,0.85
8542.00,0.85
8541.00,0.85
8540.00,0.85
8539.00,0.85
8538.00,0.85
8537.00,0.85
8536.00,0.85
8535.00,0.85
8534.00,0.85
8533.00,0.85
8532.00,0.85
8531.00,0.85
8530.00,0.84
8529.00,0.84
8528.00,0.84
8527.00,0.84
8526.00,0.84
8525.00,0.83
8524.00,0.83
8523.00,0.83
8522.00,0.83
8521.00,0.82
8520.00,0.82
8519.00,0.82
8518.00,0.82
8517.00,0.82
8516.00,0.82
8515.00,0.82
8514.00,0.82
8513.00,0.82
8512.00,0.82
8511.00,0.82
8510.00,0.82
8509.00,0.82
8508.00,0.82
8507.00,0.82
8506.00,0.82
8505.00,0.82
8504.00,0.82
8503.00,0.82
8502.00,0.82
8501.00,0.82
8500.00,0.82
8499.00,0.82
8498.00,0.82
8497.00,0.82
8496.00,0.82
8495.00,0.82
8494.00,0.82
8493.00,0.82
8492.00,0.82
8491.00,0.82
8490.00,0.82
8489.00,0.82
8488.00,0.82
8487.00,0.82
8486.00,0.82
8485.00,0.81
8484.00,0.81
8483.00,0.81
8482.00,0.81
8481.00,0.81
8480.00,0.81
8479.00,0.81
8478.00,0.81
8477.00,0.81
8476.00,0.81
8475.00,0.81
8474.00,0.81
8473.00,0.80
8472.00,0.80
8471.00,0.80
8470.00,0.80
8469.00,0.80
8468.00,0.80
8467.00,0.80
8466.00,0.80
8465.00,0.80
8464.00,0.80
8463.00,0.80
8462.00,0.80
8461.00,0.80
8460.00,0.80
8459.00,0.80
8458.00,0.79
8457.00,0.79
8456.00,0.79
8455.00,0.79
8454.00,0.78
8453.00,0.78
8452.00,0.78
8451.00,0.78
8450.00,0.78
8449.00,0.78
8448.00,0.78
8447.00,0.78
8446.00,0.78
8445.00,0.78
8444.00,0.78
8443.00,0.78
8442.00,0.78
8441.00,0.78
8440.00,0.78
8439.00,0.79
8438.00,0.79
8437.00,0.79
8436.00,0.79
8435.00,0.79
8434.00,0.80
8433.00,0.80
8432.00,0.80
8431.00,0.80
8430.00,0.80
8429.00,0.80
8428.00,0.80
8427.00,0.81
8426.00,0.81
8425.00,0.81
8424.00,0.81
8423.00,0.81
8422.00,0.81
8421.00,0.81
8420.00,0.81
8419.00,0.80
8418.00,0.80
8417.00,0.80
8416.00,0.80
8415.00,0.80
8414.00,0.80
8413.00,0.80
8412.00,0.80
8411.00,0.80
8410.00,0.80
8409.00,0.80
8408.00,0.80
8407.00,0.80
8406.00,0.80
8405.00,0.81
8404.00,0.81
8403.00,0.81
8402.00,0.81
8401.00,0.81
8400.00,0.81
8399.00,0.81
8398.00,0.81
8397.00,0.82
8396.00,0.82
8395.00,0.82
8394.00,0.82
8393.00,0.82
8392.00,0.83
8391.00,0.83
8390.00,0.83
8389.00,0.83
8388.00,0.83
8387.00,0.83
8386.00,0.83
8385.00,0.83
8384.00,0.83
8383.00,0.83
8382.00,0.83
8381.00,0.83
8380.00,0.83
8379.00,0.83
8378.00,0.83
8377.00,0.83
8376.00,0.83
8375.00,0.83
8374.00,0.83
8373.00,0.82
8372.00,0.82
8371.00,0.82
8370.00,0.82
8369.00,0.82
8368.00,0.82
8367.00,0.82
8366.00,0.82
8365.00,0.82
8364.00,0.83
8363.00,0.83
8362.00,0.83
8361.00,0.83
8360.00,0.83
8359.00,0.83
8358.00,0.83
8357.00,0.83
8356.00,0.83
8355.00,0.83
8354.00,0.83
8353.00,0.83
8352.00,0.83
8351.00,0.83
8350.00,0.83
8349.00,0.83
8348.00,0.83
8347.00,0.83
8346.00,0.83
8345.00,0.83
8344.00,0.83
8343.00,0.84
8342.00,0.84
8341.00,0.84
8340.00,0.84
8339.00,0.84
8338.00,0.83
8337.00,0.83
8336.00,0.83
8335.00,0.83
8334.00,0.83
8333.00,0.83
8332.00,0.83
8331.00,0.83
8330.00,0.83
8329.00,0.83
8328.00,0.83
8327.00,0.83
8326.00,0.83
8325.00,0.83
8324.00,0.84
8323.00,0.84
8322.00,0.84
8321.00,0.84
8320.00,0.84
8319.00,0.84
8318.00,0.84
8317.00,0.84
8316.00,0.84
8315.00,0.84
8314.00,0.84
8313.00,0.84
8312.00,0.84
8311.00,0.84
8310.00,0.84
8309.00,0.84
8308.00,0.83
8307.00,0.83
8306.00,0.83
8305.00,0.83
8304.00,0.83
8303.00,0.83
8302.00,0.83
8301.00,0.83
8300.00,0.83
8299.00,0.83
8298.00,0.83
8297.00,0.83
8296.00,0.83
8295.00,0.83
8294.00,0.83
8293.00,0.83
8292.00,0.83
8291.00,0.83
8290.00,0.83
8289.00,0.83
8288.00,0.83
8287.00,0.83
8286.00,0.83
8285.00,0.83
8284.00,0.84
8283.00,0.84
8282.00,0.84
8281.00,0.84
8280.00,0.84
8279.00,0.84
8278.00,0.84
8277.00,0.84
8276.00,0.84
8275.00,0.84
8274.00,0.84
8273.00,0.84
8272.00,0.84
8271.00,0.84
8270.00,0.84
8269.00,0.84
8268.00,0.84
8267.00,0.84
8266.00,0.84
8265.00,0.84
8264.00,0.84
8263.00,0.84
8262.00,0.84
8261.00,0.84
8260.00,0.84
8259.00,0.84
8258.00,0.84
8257.00,0.85
8256.00,0.85
8255.00,0.85
8254.00,0.85
8253.00,0.85
8252.00,0.85
8251.00,0.85
8250.00,0.85
8249.00,0.85
8248.00,0.85
8247.00,0.85
8246.00,0.85
8245.00,0.86
8244.00,0.86
8243.00,0.85
8242.00,0.85
8241.00,0.85
8240.00,0.85
8239.00,0.85
8238.00,0.85
8237.00,0.85
8236.00,0.85
8235.00,0.85
8234.00,0.85
8233.00,0.85
8232.00,0.85
8231.00,0.84
8230.00,0.84
8229.00,0.84
8228.00,0.84
8227.00,0.84
8226.00,0.84
8225.00,0.84
8224.00,0.84
8223.00,0.84
8222.00,0.84
8221.00,0.84
8220.00,0.85
8219.00,0.85
8218.00,0.85
8217.00,0.85
8216.00,0.85
8215.00,0.85
8214.00,0.85
8213.00,0.85
8212.00,0.85
8211.00,0.86
8210.00,0.86
8209.00,0.86
8208.00,0.86
8207.00,0.86
8206.00,0.86
8205.00,0.86
8204.00,0.86
8203.00,0.86
8202.00,0.86
8201.00,0.86
8200.00,0.86
8199.00,0.86
8198.00,0.86
8197.00,0.86
8196.00,0.86
8195.00,0.86
8194.00,0.86
8193.00,0.86
8192.00,0.86
8191.00,0.86
8190.00,0.86
8189.00,0.87
8188.00,0.87
8187.00,0.87
8186.00,0.87
8185.00,0.87
8184.00,0.87
8183.00,0.87
8182.00,0.87
8181.00,0.87
8180.00,0.87
8179.00,0.87
8178.00,0.86
8177.00,0.86
8176.00,0.86
8175.00,0.86
8174.00,0.86
8173.00,0.86
8172.00,0.86
8171.00,0.86
8170.00,0.86
8169.00,0.86
8168.00,0.86
8167.00,0.87
8166.00,0.87
8165.00,0.87
8164.00,0.87
8163.00,0.87
8162.00,0.87
8161.00,0.87
8160.00,0.87
8159.00,0.87
8158.00,0.87
8157.00,0.87
8156.00,0.87
8155.00,0.87
8154.00,0.87
8153.00,0.87
8152.00,0.87
8151.00,0.87
8150.00,0.87
8149.00,0.87
8148.00,0.87
8147.00,0.87
8146.00,0.87
8145.00,0.87
8144.00,0.87
8143.00,0.88
8142.00,0.88
8141.00,0.88
8140.00,0.88
8139.00,0.88
8138.00,0.88
8137.00,0.88
8136.00,0.88
8135.00,0.88
8134.00,0.88
8133.00,0.88
8132.00,0.88
8131.00,0.88
8130.00,0.88
8129.00,0.88
8128.00,0.88
8127.00,0.88
8126.00,0.88
8125.00,0.89
8124.00,0.89
8123.00,0.89
8122.00,0.89
8121.00,0.89
8120.00,0.89
8119.00,0.89
8118.00,0.89
8117.00,0.89
8116.00,0.89
8115.00,0.89
8114.00,0.89
8113.00,0.89
8112.00,0.89
8111.00,0.89
8110.00,0.89
8109.00,0.89
8108.00,0.89
8107.00,0.89
8106.00,0.89
8105.00,0.89
8104.00,0.89
8103.00,0.89
8102.00,0.89
8101.00,0.89
8100.00,0.89
8099.00,0.89
8098.00,0.89
8097.00,0.89
8096.00,0.89
8095.00,0.89
8094.00,0.89
8093.00,0.89
8092.00,0.89
8091.00,0.89
8090.00,0.89
8089.00,0.89
8088.00,0.89
8087.00,0.89
8086.00,0.89
8085.00,0.89
8084.00,0.89
8083.00,0.89
8082.00,0.89
8081.00,0.89
8080.00,0.89
8079.00,0.89
8078.00,0.90
8077.00,0.90
8076.00,0.90
8075.00,0.90
8074.00,0.90
8073.00,0.90
8072.00,0.90
8071.00,0.90
8070.00,0.90
8069.00,0.90
8068.00,0.90
8067.00,0.90
8066.00,0.90
8065.00,0.90
8064.00,0.90
8063.00,0.90
8062.00,0.90
8061.00,0.90
8060.00,0.90
8059.00,0.90
8058.00,0.90
8057.00,0.90
8056.00,0.90
8055.00,0.90
8054.00,0.90
8053.00,0.90
8052.00,0.90
8051.00,0.90
8050.00,0.90
8049.00,0.90
8048.00,0.90
8047.00,0.90
8046.00,0.90
8045.00,0.90
8044.00,0.90
8043.00,0.90
8042.00,0.90
8041.00,0.90
8040.00,0.90
8039.00,0.90
8038.00,0.90
8037.00,0.90
8036.00,0.89
8035.00,0.89
8034.00,0.89
8033.00,0.89
8032.00,0.89
8031.00,0.89
8030.00,0.89
8029.00,0.89
8028.00,0.89
8027.00,0.89
8026.00,0.89
8025.00,0.89
8024.00,0.89
8023.00,0.89
8022.00,0.89
8021.00,0.90
8020.00,0.90
8019.00,0.90
8018.00,0.90
8017.00,0.90
8016.00,0.90
8015.00,0.90
8014.00,0.90
8013.00,0.90
8012.00,0.90
8011.00,0.90
8010.00,0.90
8009.00,0.90
8008.00,0.90
8007.00,0.90
8006.00,0.90
8005.00,0.90
8004.00,0.90
8003.00,0.90
8002.00,0.90
8001.00,0.90
8000.00,0.90
7999.00,0.90
7998.00,0.90
7997.00,0.90
7996.00,0.90
7995.00,0.90
7994.00,0.90
7993.00,0.90
7992.00,0.90
7991.00,0.90
7990.00,0.90
7989.00,0.90
7988.00,0.90
7987.00,0.90
7986.00,0.90
7985.00,0.90
7984.00,0.90
7983.00,0.90
7982.00,0.90
7981.00,0.90
7980.00,0.90
7979.00,0.90
7978.00,0.90
7977.00,0.90
7976.00,0.90
7975.00,0.91
7974.00,0.91
7973.00,0.91
7972.00,0.91
7971.00,0.91
7970.00,0.91
7969.00,0.91
7968.00,0.91
7967.00,0.91
7966.00,0.90
7965.00,0.90
7964.00,0.90
7963.00,0.90
7962.00,0.90
7961.00,0.90
7960.00,0.90
7959.00,0.90
7958.00,0.90
7957.00,0.90
7956.00,0.90
7955.00,0.90
7954.00,0.90
7953.00,0.89
7952.00,0.89
7951.00,0.89
7950.00,0.90
7949.00,0.90
7948.00,0.90
7947.00,0.90
7946.00,0.90
7945.00,0.90
7944.00,0.90
7943.00,0.90
7942.00,0.90
7941.00,0.90
7940.00,0.90
7939.00,0.91
7938.00,0.91
7937.00,0.91
7936.00,0.91
7935.00,0.91
7934.00,0.91
7933.00,0.91
7932.00,0.91
7931.00,0.91
7930.00,0.91
7929.00,0.92
7928.00,0.92
7927.00,0.92
7926.00,0.92
7925.00,0.92
7924.00,0.92
7923.00,0.92
7922.00,0.92
7921.00,0.91
7920.00,0.91
7919.00,0.91
7918.00,0.91
7917.00,0.91
7916.00,0.91
7915.00,0.91
7914.00,0.91
7913.00,0.91
7912.00,0.91
7911.00,0.91
7910.00,0.91
7909.00,0.91
7908.00,0.91
7907.00,0.91
7906.00,0.91
7905.00,0.91
7904.00,0.92
7903.00,0.92
7902.00,0.92
7901.00,0.92
7900.00,0.92
7899.00,0.92
7898.00,0.92
7897.00,0.92
7896.00,0.92
7895.00,0.92
7894.00,0.92
7893.00,0.92
7892.00,0.92
7891.00,0.92
7890.00,0.92
7889.00,0.92
7888.00,0.92
7887.00,0.92
7886.00,0.92
7885.00,0.92
7884.00,0.92
7883.00,0.91
7882.00,0.91
7881.00,0.91
7880.00,0.91
7879.00,0.91
7878.00,0.91
7877.00,0.91
7876.00,0.91
7875.00,0.91
7874.00,0.91
7873.00,0.91
7872.00,0.91
7871.00,0.91
7870.00,0.91
7869.00,0.91
7868.00,0.91
7867.00,0.91
7866.00,0.92
7865.00,0.92
7864.00,0.92
7863.00,0.92
7862.00,0.92
7861.00,0.92
7860.00,0.92
7859.00,0.92
7858.00,0.92
7857.00,0.92
7856.00,0.91
7855.00,0.91
7854.00,0.91
7853.00,0.91
7852.00,0.91
7851.00,0.91
7850.00,0.91
7849.00,0.91
7848.00,0.91
7847.00,0.91
7846.00,0.91
7845.00,0.91
7844.00,0.91
7843.00,0.91
7842.00,0.91
7841.00,0.91
7840.00,0.91
7839.00,0.91
7838.00,0.91
7837.00,0.91
7836.00,0.91
7835.00,0.91
7834.00,0.91
7833.00,0.91
7832.00,0.91
7831.00,0.91
7830.00,0.91
7829.00,0.91
7828.00,0.91
7827.00,0.91
7826.00,0.91
7825.00,0.91
7824.00,0.91
7823.00,0.91
7822.00,0.91
7821.00,0.91
7820.00,0.91
7819.00,0.91
7818.00,0.91
7817.00,0.91
7816.00,0.91
7815.00,0.91
7814.00,0.91
7813.00,0.91
7812.00,0.91
7811.00,0.91
7810.00,0.91
7809.00,0.91
7808.00,0.91
7807.00,0.92
7806.00,0.92
7805.00,0.92
7804.00,0.92
7803.00,0.92
7802.00,0.92
7801.00,0.92
7800.00,0.92
7799.00,0.92
7798.00,0.92
7797.00,0.92
7796.00,0.92
7795.00,0.92
7794.00,0.93
7793.00,0.93
7792.00,0.93
7791.00,0.93
7790.00,0.93
7789.00,0.93
7788.00,0.93
7787.00,0.93
7786.00,0.93
7785.00,0.93
7784.00,0.93
7783.00,0.93
7782.00,0.92
7781.00,0.92
7780.00,0.92
7779.00,0.92
7778.00,0.92
7777.00,0.92
7776.00,0.92
7775.00,0.92
7774.00,0.92
7773.00,0.92
7772.00,0.93
7771.00,0.93
7770.00,0.93
7769.00,0.93
7768.00,0.93
7767.00,0.93
7766.00,0.93
7765.00,0.93
7764.00,0.93
7763.00,0.93
7762.00,0.93
7761.00,0.93
7760.00,0.93
7759.00,0.93
7758.00,0.93
7757.00,0.93
7756.00,0.93
7755.00,0.93
7754.00,0.93
7753.00,0.93
7752.00,0.93
7751.00,0.93
7750.00,0.93
7749.00,0.93
7748.00,0.93
7747.00,0.93
7746.00,0.93
7745.00,0.93
7744.00,0.93
7743.00,0.93
7742.00,0.93
7741.00,0.93
7740.00,0.93
7739.00,0.93
7738.00,0.93
7737.00,0.93
7736.00,0.93
7735.00,0.93
7734.00,0.93
7733.00,0.93
7732.00,0.93
7731.00,0.93
7730.00,0.93
7729.00,0.93
7728.00,0.92
7727.00,0.92
7726.00,0.92
7725.00,0.92
7724.00,0.92
7723.00,0.92
7722.00,0.92
7721.00,0.92
7720.00,0.92
7719.00,0.92
7718.00,0.92
7717.00,0.92
7716.00,0.92
7715.00,0.92
7714.00,0.92
7713.00,0.92
7712.00,0.92
7711.00,0.92
7710.00,0.92
7709.00,0.92
7708.00,0.92
7707.00,0.92
7706.00,0.92
7705.00,0.92
7704.00,0.93
7703.00,0.93
7702.00,0.93
7701.00,0.93
7700.00,0.93
7699.00,0.93
7698.00,0.93
7697.00,0.93
7696.00,0.93
7695.00,0.93
7694.00,0.93
7693.00,0.93
7692.00,0.93
7691.00,0.93
7690.00,0.93
7689.00,0.93
7688.00,0.93
7687.00,0.93
7686.00,0.93
7685.00,0.93
7684.00,0.93
7683.00,0.93
7682.00,0.93
7681.00,0.93
7680.00,0.93
7679.00,0.93
7678.00,0.93
7677.00,0.93
7676.00,0.93
7675.00,0.93
7674.00,0.93
7673.00,0.93
7672.00,0.93
7671.00,0.93
7670.00,0.93
7669.00,0.93
7668.00,0.93
7667.00,0.93
7666.00,0.93
7665.00,0.93
7664.00,0.93
7663.00,0.93
7662.00,0.93
7661.00,0.93
7660.00,0.93
7659.00,0.92
7658.00,0.92
7657.00,0.92
7656.00,0.92
7655.00,0.93
7654.00,0.93
7653.00,0.93
7652.00,0.93
7651.00,0.93
7650.00,0.93
7649.00,0.93
7648.00,0.93
7647.00,0.93
7646.00,0.93
7645.00,0.93
7644.00,0.93
7643.00,0.93
7642.00,0.93
7641.00,0.93
7640.00,0.93
7639.00,0.93
7638.00,0.93
7637.00,0.93
7636.00,0.93
7635.00,0.93
7634.00,0.93
7633.00,0.93
7632.00,0.93
7631.00,0.93
7630.00,0.93
7629.00,0.93
7628.00,0.92
7627.00,0.92
7626.00,0.92
7625.00,0.92
7624.00,0.92
7623.00,0.92
7622.00,0.92
7621.00,0.92
7620.00,0.92
7619.00,0.92
7618.00,0.92
7617.00,0.92
7616.00,0.92
7615.00,0.92
7614.00,0.92
7613.00,0.92
7612.00,0.92
7611.00,0.92
7610.00,0.92
7609.00,0.92
7608.00,0.92
7607.00,0.92
7606.00,0.92
7605.00,0.92
7604.00,0.92
7603.00,0.92
7602.00,0.92
7601.00,0.92
7600.00,0.92
7599.00,0.92
7598.00,0.92
7597.00,0.92
7596.00,0.92
7595.00,0.92
7594.00,0.92
7593.00,0.92
7592.00,0.92
7591.00,0.92
7590.00,0.92
7589.00,0.92
7588.00,0.92
7587.00,0.92
7586.00,0.92
7585.00,0.93
7584.00,0.93
7583.00,0.93
7582.00,0.93
7581.00,0.93
7580.00,0.93
7579.00,0.93
7578.00,0.93
7577.00,0.93
7576.00,0.93
7575.00,0.93
7574.00,0.93
7573.00,0.93
7572.00,0.93
7571.00,0.92
7570.00,0.92
7569.00,0.92
7568.00,0.92
7567.00,0.92
7566.00,0.92
7565.00,0.92
7564.00,0.92
7563.00,0.92
7562.00,0.92
7561.00,0.92
7560.00,0.92
7559.00,0.92
7558.00,0.92
7557.00,0.92
7556.00,0.92
7555.00,0.92
7554.00,0.92
7553.00,0.92
7552.00,0.92
7551.00,0.92
7550.00,0.92
7549.00,0.92
7548.00,0.92
7547.00,0.92
7546.00,0.92
7545.00,0.92
7544.00,0.92
7543.00,0.92
7542.00,0.92
7541.00,0.92
7540.00,0.92
7539.00,0.92
7538.00,0.92
7537.00,0.92
7536.00,0.92
7535.00,0.92
7534.00,0.92
7533.00,0.92
7532.00,0.92
7531.00,0.92
7530.00,0.92
7529.00,0.92
7528.00,0.92
7527.00,0.92
7526.00,0.92
7525.00,0.92
7524.00,0.92
7523.00,0.92
7522.00,0.92
7521.00,0.92
7520.00,0.92
7519.00,0.92
7518.00,0.92
7517.00,0.92
7516.00,0.92
7515.00,0.92
7514.00,0.92
7513.00,0.92
7512.00,0.92
7511.00,0.92
7510.00,0.91
7509.00,0.91
7508.00,0.91
7507.00,0.91
7506.00,0.91
7505.00,0.91
7504.00,0.91
7503.00,0.91
7502.00,0.91
7501.00,0.91
7500.00,0.91
7499.00,0.91
7498.00,0.91
7497.00,0.91
7496.00,0.91
7495.00,0.91
7494.00,0.91
7493.00,0.91
7492.00,0.91
7491.00,0.91
7490.00,0.91
7489.00,0.91
7488.00,0.91
7487.00,0.91
7486.00,0.91
7485.00,0.91
7484.00,0.91
7483.00,0.91
7482.00,0.91
7481.00,0.91
7480.00,0.91
7479.00,0.91
7478.00,0.91
7477.00,0.91
7476.00,0.91
7475.00,0.91
7474.00,0.91
7473.00,0.91
7472.00,0.91
7471.00,0.91
7470.00,0.91
7469.00,0.91
7468.00,0.91
7467.00,0.91
7466.00,0.91
7465.00,0.91
7464.00,0.91
7463.00,0.90
7462.00,0.90
7461.00,0.90
7460.00,0.90
7459.00,0.90
7458.00,0.90
7457.00,0.90
7456.00,0.90
7455.00,0.90
7454.00,0.90
7453.00,0.90
7452.00,0.90
7451.00,0.89
7450.00,0.89
7449.00,0.89
7448.00,0.89
7447.00,0.89
7446.00,0.89
7445.00,0.89
7444.00,0.89
7443.00,0.89
7442.00,0.89
7441.00,0.89
7440.00,0.89
7439.00,0.89
7438.00,0.89
7437.00,0.89
7436.00,0.89
7435.00,0.89
7434.00,0.89
7433.00,0.89
7432.00,0.89
7431.00,0.89
7430.00,0.89
7429.00,0.89
7428.00,0.89
7427.00,0.88
7426.00,0.88
7425.00,0.88
7424.00,0.88
7423.00,0.88
7422.00,0.88
7421.00,0.88
7420.00,0.88
7419.00,0.88
7418.00,0.88
7417.00,0.87
7416.00,0.87
7415.00,0.87
7414.00,0.87
7413.00,0.87
7412.00,0.87
7411.00,0.87
7410.00,0.87
7409.00,0.87
7408.00,0.87
7407.00,0.87
7406.00,0.87
7405.00,0.87
7404.00,0.87
7403.00,0.87
7402.00,0.87
7401.00,0.87
7400.00,0.86
7399.00,0.86
7398.00,0.86
7397.00,0.86
7396.00,0.86
7395.00,0.86
7394.00,0.86
7393.00,0.86
7392.00,0.86
7391.00,0.86
7390.00,0.86
7389.00,0.86
7388.00,0.86
7387.00,0.86
7386.00,0.86
7385.00,0.85
7384.00,0.85
7383.00,0.85
7382.00,0.85
7381.00,0.85
7380.00,0.85
7379.00,0.85
7378.00,0.85
7377.00,0.85
7376.00,0.85
7375.00,0.85
7374.00,0.85
7373.00,0.85
7372.00,0.85
7371.00,0.85
7370.00,0.85
7369.00,0.85
7368.00,0.85
7367.00,0.85
7366.00,0.85
7365.00,0.85
7364.00,0.85
7363.00,0.85
7362.00,0.85
7361.00,0.85
7360.00,0.85
7359.00,0.85
7358.00,0.85
7357.00,0.85
7356.00,0.85
7355.00,0.85
7354.00,0.85
7353.00,0.85
7352.00,0.85
7351.00,0.85
7350.00,0.85
7349.00,0.85
7348.00,0.85
7347.00,0.85
7346.00,0.85
7345.00,0.85
7344.00,0.85
7343.00,0.85
7342.00,0.85
7341.00,0.84
7340.00,0.84
7339.00,0.84
7338.00,0.84
7337.00,0.84
7336.00,0.84
7335.00,0.84
7334.00,0.84
7333.00,0.84
7332.00,0.84
7331.00,0.84
7330.00,0.84
7329.00,0.84
7328.00,0.84
7327.00,0.84
7326.00,0.83
7325.00,0.83
7324.00,0.83
7323.00,0.83
7322.00,0.83
7321.00,0.83
7320.00,0.83
7319.00,0.83
7318.00,0.83
7317.00,0.83
7316.00,0.83
7315.00,0.83
7314.00,0.82
7313.00,0.82
7312.00,0.82
7311.00,0.82
7310.00,0.82
7309.00,0.82
7308.00,0.82
7307.00,0.82
7306.00,0.82
7305.00,0.82
7304.00,0.82
7303.00,0.82
7302.00,0.82
7301.00,0.82
7300.00,0.82
7299.00,0.82
7298.00,0.82
7297.00,0.82
7296.00,0.82
7295.00,0.82
7294.00,0.81
7293.00,0.81
7292.00,0.81
7291.00,0.81
7290.00,0.81
7289.00,0.81
7288.00,0.81
7287.00,0.81
7286.00,0.81
7285.00,0.81
7284.00,0.81
7283.00,0.81
7282.00,0.81
7281.00,0.80
7280.00,0.80
7279.00,0.80
7278.00,0.80
7277.00,0.80
7276.00,0.80
7275.00,0.80
7274.00,0.80
7273.00,0.80
7272.00,0.80
7271.00,0.80
7270.00,0.80
7269.00,0.80
7268.00,0.80
7267.00,0.80
7266.00,0.79
7265.00,0.79
7264.00,0.79
7263.00,0.79
7262.00,0.79
7261.00,0.79
7260.00,0.79
7259.00,0.79
7258.00,0.79
7257.00,0.79
7256.00,0.79
7255.00,0.79
7254.00,0.79
7253.00,0.78
7252.00,0.78
7251.00,0.78
7250.00,0.78
7249.00,0.78
7248.00,0.78
7247.00,0.77
7246.00,0.77
7245.00,0.77
7244.00,0.77
7243.00,0.77
7242.00,0.77
7241.00,0.76
7240.00,0.76
7239.00,0.76
7238.00,0.76
7237.00,0.76
7236.00,0.75
7235.00,0.75
7234.00,0.75
7233.00,0.75
7232.00,0.75
7231.00,0.74
7230.00,0.74
7229.00,0.74
7228.00,0.73
7227.00,0.73
7226.00,0.73
7225.00,0.73
7224.00,0.72
7223.00,0.72
7222.00,0.72
7221.00,0.71
7220.00,0.71
7219.00,0.71
7218.00,0.71
7217.00,0.70
7216.00,0.70
7215.00,0.70
7214.00,0.69
7213.00,0.69
7212.00,0.69
7211.00,0.69
7210.00,0.68
7209.00,0.68
7208.00,0.68
7207.00,0.68
7206.00,0.68
7205.00,0.67
7204.00,0.67
7203.00,0.67
7202.00,0.67
7201.00,0.67
7200.00,0.67
7199.00,0.67
7198.00,0.66
7197.00,0.66
7196.00,0.66
7195.00,0.66
7194.00,0.66
7193.00,0.65
7192.00,0.65
7191.00,0.65
7190.00,0.65
7189.00,0.65
7188.00,0.64
7187.00,0.64
7186.00,0.64
7185.00,0.64
7184.00,0.63
7183.00,0.63
7182.00,0.63
7181.00,0.63
7180.00,0.62
7179.00,0.62
7178.00,0.62
7177.00,0.62
7176.00,0.62
7175.00,0.61
7174.00,0.61
7173.00,0.61
7172.00,0.61
7171.00,0.60
7170.00,0.60
7169.00,0.60
7168.00,0.60
7167.00,0.60
7166.00,0.60
7165.00,0.59
7164.00,0.59
7163.00,0.59
7162.00,0.59
7161.00,0.59
7160.00,0.59
7159.00,0.59
7158.00,0.58
7157.00,0.58
7156.00,0.58
7155.00,0.58
7154.00,0.58
7153.00,0.58
7152.00,0.57
7151.00,0.57
7150.00,0.57
7149.00,0.57
7148.00,0.56
7147.00,0.56
7146.00,0.56
7145.00,0.56
7144.00,0.56
7143.00,0.55
7142.00,0.55
7141.00,0.55
7140.00,0.55
7139.00,0.55
7138.00,0.55
7137.00,0.54
7136.00,0.54
7135.00,0.54
7134.00,0.54
7133.00,0.54
7132.00,0.54
7131.00,0.54
7130.00,0.54
7129.00,0.53
7128.00,0.53
7127.00,0.53
7126.00,0.53
7125.00,0.53
7124.00,0.53
7123.00,0.53
7122.00,0.52
7121.00,0.52
7120.00,0.52
7119.00,0.52
7118.00,0.52
7117.00,0.52
7116.00,0.51
7115.00,0.51
7114.00,0.51
7113.00,0.51
7112.00,0.51
7111.00,0.51
7110.00,0.50
7109.00,0.50
7108.00,0.50
7107.00,0.50
7106.00,0.50
7105.00,0.50
7104.00,0.50
7103.00,0.50
7102.00,0.50
7101.00,0.50
7100.00,0.50
7099.00,0.49
7098.00,0.49
7097.00,0.49
7096.00,0.49
7095.00,0.49
7094.00,0.49
7093.00,0.49
7092.00,0.49
7091.00,0.49
7090.00,0.49
7089.00,0.49
7088.00,0.49
7087.00,0.49
7086.00,0.49
7085.00,0.49
7084.00,0.48
7083.00,0.48
7082.00,0.48
7081.00,0.48
7080.00,0.48
7079.00,0.48
7078.00,0.48
7077.00,0.48
7076.00,0.48
7075.00,0.47
7074.00,0.47
7073.00,0.47
7072.00,0.47
7071.00,0.47
7070.00,0.47
7069.00,0.47
7068.00,0.47
7067.00,0.47
7066.00,0.47
7065.00,0.47
7064.00,0.47
7063.00,0.47
7062.00,0.47
7061.00,0.47
7060.00,0.46
7059.00,0.46
7058.00,0.46
7057.00,0.46
7056.00,0.46
7055.00,0.46
7054.00,0.46
7053.00,0.46
7052.00,0.46
7051.00,0.46
7050.00,0.45
7049.00,0.45
7048.00,0.45
7047.00,0.45
7046.00,0.45
7045.00,0.45
7044.00,0.45
7043.00,0.45
7042.00,0.45
7041.00,0.45
7040.00,0.45
7039.00,0.45
7038.00,0.45
7037.00,0.45
7036.00,0.45
7035.00,0.45
7034.00,0.45
7033.00,0.44
7032.00,0.44
7031.00,0.44
7030.00,0.44
7029.00,0.44
7028.00,0.44
7027.00,0.44
7026.00,0.44
7025.00,0.44
7024.00,0.44
7023.00,0.44
7022.00,0.44
7021.00,0.44
7020.00,0.44
7019.00,0.44
7018.00,0.44
7017.00,0.44
7016.00,0.44
7015.00,0.44
7014.00,0.44
7013.00,0.44
7012.00,0.44
7011.00,0.44
7010.00,0.44
7009.00,0.44
7008.00,0.44
7007.00,0.44
7006.00,0.44
7005.00,0.44
7004.00,0.44
7003.00,0.44
7002.00,0.44
7001.00,0.44
7000.00,0.43
6999.00,0.43
6998.00,0.43
6997.00,0.43
6996.00,0.43
6995.00,0.43
6994.00,0.43
6993.00,0.43
6992.00,0.43
6991.00,0.43
6990.00,0.43
6989.00,0.43
6988.00,0.43
6987.00,0.43
6986.00,0.43
6985.00,0.43
6984.00,0.43
6983.00,0.43
6982.00,0.43
6981.00,0.43
6980.00,0.43
6979.00,0.43
6978.00,0.43
6977.00,0.42
6976.00,0.42
6975.00,0.42
6974.00,0.42
6973.00,0.42
6972.00,0.42
6971.00,0.42
6970.00,0.42
6969.00,0.42
6968.00,0.42
6967.00,0.42
6966.00,0.42
6965.00,0.42
6964.00,0.42
6963.00,0.42
6962.00,0.42
6961.00,0.42
6960.00,0.42
6959.00,0.42
6958.00,0.42
6957.00,0.42
6956.00,0.42
6955.00,0.42
6954.00,0.42
6953.00,0.42
6952.00,0.42
6951.00,0.42
6950.00,0.42
6949.00,0.42
6948.00,0.42
6947.00,0.42
6946.00,0.42
6945.00,0.42
6944.00,0.42
6943.00,0.42
6942.00,0.42
6941.00,0.42
6940.00,0.42
6939.00,0.42
6938.00,0.42
6937.00,0.42
6936.00,0.42
6935.00,0.42
6934.00,0.42
6933.00,0.42
6932.00,0.42
6931.00,0.42
6930.00,0.42
6929.00,0.42
6928.00,0.42
6927.00,0.42
6926.00,0.41
6925.00,0.41
6924.00,0.41
6923.00,0.41
6922.00,0.41
6921.00,0.41
6920.00,0.41
6919.00,0.41
6918.00,0.41
6917.00,0.41
6916.00,0.41
6915.00,0.41
6914.00,0.41
6913.00,0.41
6912.00,0.41
6911.00,0.41
6910.00,0.41
6909.00,0.41
6908.00,0.41
6907.00,0.41
6906.00,0.41
6905.00,0.41
6904.00,0.41
6903.00,0.41
6902.00,0.41
6901.00,0.41
6900.00,0.41
6899.00,0.41
6898.00,0.41
6897.00,0.41
6896.00,0.41
6895.00,0.41
6894.00,0.41
6893.00,0.41
6892.00,0.41
6891.00,0.41
6890.00,0.41
6889.00,0.41
6888.00,0.41
6887.00,0.41
6886.00,0.41
6885.00,0.41
6884.00,0.41
6883.00,0.41
6882.00,0.41
6881.00,0.41
6880.00,0.41
6879.00,0.41
6878.00,0.41
6877.00,0.41
6876.00,0.41
6875.00,0.41
6874.00,0.41
6873.00,0.41
6872.00,0.41
6871.00,0.41
6870.00,0.41
6869.00,0.41
6868.00,0.41
6867.00,0.41
6866.00,0.41
6865.00,0.41
6864.00,0.41
6863.00,0.41
6862.00,0.41
6861.00,0.42
6860.00,0.42
6859.00,0.42
6858.00,0.42
6857.00,0.42
6856.00,0.42
6855.00,0.42
6854.00,0.42
6853.00,0.42
6852.00,0.42
6851.00,0.42
6850.00,0.42
6849.00,0.42
6848.00,0.42
6847.00,0.42
6846.00,0.42
6845.00,0.42
6844.00,0.42
6843.00,0.42
6842.00,0.42
6841.00,0.42
6840.00,0.42
6839.00,0.42
6838.00,0.42
6837.00,0.42
6836.00,0.42
6835.00,0.42
6834.00,0.42
6833.00,0.42
6832.00,0.42
6831.00,0.42
6830.00,0.42
6829.00,0.42
6828.00,0.42
6827.00,0.42
6826.00,0.42
6825.00,0.42
6824.00,0.42
6823.00,0.42
6822.00,0.42
6821.00,0.42
6820.00,0.42
6819.00,0.42
6818.00,0.42
6817.00,0.42
6816.00,0.42
6815.00,0.42
6814.00,0.42
6813.00,0.42
6812.00,0.42
6811.00,0.42
6810.00,0.42
6809.00,0.42
6808.00,0.42
6807.00,0.42
6806.00,0.42
6805.00,0.42
6804.00,0.42
6803.00,0.42
6802.00,0.42
6801.00,0.42
6800.00,0.42
6799.00,0.42
6798.00,0.42
6797.00,0.43
6796.00,0.43
6795.00,0.43
6794.00,0.43
6793.00,0.43
6792.00,0.43
6791.00,0.43
6790.00,0.43
6789.00,0.43
6788.00,0.43
6787.00,0.43
6786.00,0.43
6785.00,0.43
6784.00,0.43
6783.00,0.43
6782.00,0.43
6781.00,0.43
6780.00,0.43
6779.00,0.43
6778.00,0.43
6777.00,0.43
6776.00,0.43
6775.00,0.43
6774.00,0.43
6773.00,0.43
6772.00,0.43
6771.00,0.43
6770.00,0.43
6769.00,0.43
6768.00,0.43
6767.00,0.43
6766.00,0.43
6765.00,0.43
6764.00,0.43
6763.00,0.43
6762.00,0.43
6761.00,0.43
6760.00,0.43
6759.00,0.43
6758.00,0.43
6757.00,0.43
6756.00,0.43
6755.00,0.43
6754.00,0.43
6753.00,0.44
6752.00,0.44
6751.00,0.44
6750.00,0.44
6749.00,0.44
6748.00,0.44
6747.00,0.44
6746.00,0.44
6745.00,0.44
6744.00,0.44
6743.00,0.44
6742.00,0.44
6741.00,0.44
6740.00,0.44
6739.00,0.45
6738.00,0.45
6737.00,0.45
6736.00,0.45
6735.00,0.45
6734.00,0.45
6733.00,0.45
6732.00,0.45
6731.00,0.45
6730.00,0.45
6729.00,0.45
6728.00,0.45
6727.00,0.45
6726.00,0.45
6725.00,0.45
6724.00,0.45
6723.00,0.45
6722.00,0.45
6721.00,0.45
6720.00,0.45
6719.00,0.45
6718.00,0.45
6717.00,0.45
6716.00,0.45
6715.00,0.45
6714.00,0.45
6713.00,0.46
6712.00,0.46
6711.00,0.46
6710.00,0.46
6709.00,0.46
6708.00,0.46
6707.00,0.46
6706.00,0.46
6705.00,0.46
6704.00,0.46
6703.00,0.46
6702.00,0.46
6701.00,0.46
6700.00,0.46
6699.00,0.46
6698.00,0.46
6697.00,0.46
6696.00,0.46
6695.00,0.46
6694.00,0.47
6693.00,0.47
6692.00,0.47
6691.00,0.47
6690.00,0.47
6689.00,0.47
6688.00,0.47
6687.00,0.47
6686.00,0.47
6685.00,0.47
6684.00,0.47
6683.00,0.47
6682.00,0.47
6681.00,0.47
6680.00,0.47
6679.00,0.47
6678.00,0.47
6677.00,0.47
6676.00,0.48
6675.00,0.48
6674.00,0.48
6673.00,0.48
6672.00,0.48
6671.00,0.48
6670.00,0.48
6669.00,0.48
6668.00,0.48
6667.00,0.48
6666.00,0.48
6665.00,0.48
6664.00,0.48
6663.00,0.48
6662.00,0.49
6661.00,0.49
6660.00,0.49
6659.00,0.49
6658.00,0.49
6657.00,0.49
6656.00,0.49
6655.00,0.49
6654.00,0.49
6653.00,0.49
6652.00,0.49
6651.00,0.49
6650.00,0.49
6649.00,0.49
6648.00,0.49
6647.00,0.49
6646.00,0.49
6645.00,0.49
6644.00,0.50
6643.00,0.50
6642.00,0.50
6641.00,0.50
6640.00,0.50
6639.00,0.50
6638.00,0.50
6637.00,0.50
6636.00,0.50
6635.00,0.50
6634.00,0.50
6633.00,0.50
6632.00,0.50
6631.00,0.50
6630.00,0.50
6629.00,0.50
6628.00,0.50
6627.00,0.50
6626.00,0.50
6625.00,0.50
6624.00,0.50
6623.00,0.50
6622.00,0.51
6621.00,0.51
6620.00,0.51
6619.00,0.51
6618.00,0.51
6617.00,0.51
6616.00,0.51
6615.00,0.51
6614.00,0.51
6613.00,0.51
6612.00,0.51
6611.00,0.51
6610.00,0.51
6609.00,0.51
6608.00,0.51
6607.00,0.51
6606.00,0.51
6605.00,0.51
6604.00,0.51
6603.00,0.51
6602.00,0.51
6601.00,0.51
6600.00,0.51
6599.00,0.51
6598.00,0.51
6597.00,0.51
6596.00,0.51
6595.00,0.52
6594.00,0.52
6593.00,0.52
6592.00,0.52
6591.00,0.52
6590.00,0.52
6589.00,0.52
6588.00,0.52
6587.00,0.52
6586.00,0.53
6585.00,0.53
6584.00,0.53
6583.00,0.53
6582.00,0.53
6581.00,0.53
6580.00,0.53
6579.00,0.53
6578.00,0.53
6577.00,0.53
6576.00,0.53
6575.00,0.53
6574.00,0.53
6573.00,0.53
6572.00,0.53
6571.00,0.53
6570.00,0.53
6569.00,0.53
6568.00,0.53
6567.00,0.53
6566.00,0.53
6565.00,0.53
6564.00,0.53
6563.00,0.54
6562.00,0.54
6561.00,0.54
6560.00,0.54
6559.00,0.54
6558.00,0.54
6557.00,0.54
6556.00,0.54
6555.00,0.54
6554.00,0.54
6553.00,0.54
6552.00,0.55
6551.00,0.55
6550.00,0.55
6549.00,0.55
6548.00,0.55
6547.00,0.55
6546.00,0.55
6545.00,0.55
6544.00,0.55
6543.00,0.55
6542.00,0.55
6541.00,0.55
6540.00,0.55
6539.00,0.55
6538.00,0.55
6537.00,0.55
6536.00,0.55
6535.00,0.56
6534.00,0.56
6533.00,0.56
6532.00,0.56
6531.00,0.56
6530.00,0.56
6529.00,0.56
6528.00,0.56
6527.00,0.56
6526.00,0.56
6525.00,0.56
6524.00,0.56
6523.00,0.56
6522.00,0.56
6521.00,0.56
6520.00,0.56
6519.00,0.56
6518.00,0.56
6517.00,0.56
6516.00,0.56
6515.00,0.56
6514.00,0.56
6513.00,0.56
6512.00,0.56
6511.00,0.56
6510.00,0.56
6509.00,0.57
6508.00,0.57
6507.00,0.57
6506.00,0.57
6505.00,0.57
6504.00,0.57
6503.00,0.57
6502.00,0.57
6501.00,0.57
6500.00,0.57
6499.00,0.57
6498.00,0.57
6497.00,0.57
6496.00,0.57
6495.00,0.57
6494.00,0.57
6493.00,0.57
6492.00,0.57
6491.00,0.57
6490.00,0.57
6489.00,0.57
6488.00,0.58
6487.00,0.58
6486.00,0.58
6485.00,0.58
6484.00,0.58
6483.00,0.58
6482.00,0.58
6481.00,0.58
6480.00,0.58
6479.00,0.58
6478.00,0.58
6477.00,0.58
6476.00,0.58
6475.00,0.59
6474.00,0.59
6473.00,0.59
6472.00,0.59
6471.00,0.59
6470.00,0.59
6469.00,0.59
6468.00,0.59
6467.00,0.59
6466.00,0.59
6465.00,0.59
6464.00,0.59
6463.00,0.59
6462.00,0.59
6461.00,0.59
6460.00,0.59
6459.00,0.59
6458.00,0.59
6457.00,0.59
6456.00,0.59
6455.00,0.59
6454.00,0.59
6453.00,0.59
6452.00,0.59
6451.00,0.59
6450.00,0.59
6449.00,0.59
6448.00,0.59
6447.00,0.59
6446.00,0.59
6445.00,0.59
6444.00,0.59
6443.00,0.59
6442.00,0.59
6441.00,0.59
6440.00,0.59
6439.00,0.59
6438.00,0.59
6437.00,0.60
6436.00,0.60
6435.00,0.60
6434.00,0.60
6433.00,0.60
6432.00,0.60
6431.00,0.60
6430.00,0.60
6429.00,0.60
6428.00,0.60
6427.00,0.60
6426.00,0.60
6425.00,0.60
6424.00,0.60
6423.00,0.60
6422.00,0.60
6421.00,0.60
6420.00,0.60
6419.00,0.60
6418.00,0.60
6417.00,0.60
6416.00,0.60
6415.00,0.60
6414.00,0.60
6413.00,0.60
6412.00,0.60
6411.00,0.60
6410.00,0.60
6409.00,0.60
6408.00,0.61
6407.00,0.61
6406.00,0.61
6405.00,0.61
6404.00,0.61
6403.00,0.61
6402.00,0.61
6401.00,0.61
6400.00,0.61
6399.00,0.61
6398.00,0.61
6397.00,0.61
6396.00,0.61
6395.00,0.61
6394.00,0.61
6393.00,0.61
6392.00,0.61
6391.00,0.61
6390.00,0.61
6389.00,0.61
6388.00,0.61
6387.00,0.61
6386.00,0.61
6385.00,0.61
6384.00,0.61
6383.00,0.61
6382.00,0.61
6381.00,0.61
6380.00,0.61
6379.00,0.62
6378.00,0.62
6377.00,0.62
6376.00,0.62
6375.00,0.62
6374.00,0.62
6373.00,0.62
6372.00,0.62
6371.00,0.62
6370.00,0.62
6369.00,0.62
6368.00,0.62
6367.00,0.62
6366.00,0.62
6365.00,0.63
6364.00,0.63
6363.00,0.63
6362.00,0.63
6361.00,0.63
6360.00,0.63
6359.00,0.63
6358.00,0.63
6357.00,0.63
6356.00,0.63
6355.00,0.63
6354.00,0.63
6353.00,0.63
6352.00,0.63
6351.00,0.63
6350.00,0.63
6349.00,0.63
6348.00,0.63
6347.00,0.63
6346.00,0.64
6345.00,0.64
6344.00,0.64
6343.00,0.64
6342.00,0.64
6341.00,0.64
6340.00,0.64
6339.00,0.64
6338.00,0.64
6337.00,0.64
6336.00,0.64
6335.00,0.64
6334.00,0.64
6333.00,0.64
6332.00,0.64
6331.00,0.65
6330.00,0.65
6329.00,0.65
6328.00,0.65
6327.00,0.65
6326.00,0.65
6325.00,0.65
6324.00,0.65
6323.00,0.65
6322.00,0.65
6321.00,0.65
6320.00,0.65
6319.00,0.65
6318.00,0.65
6317.00,0.65
6316.00,0.65
6315.00,0.66
6314.00,0.66
6313.00,0.66
6312.00,0.66
6311.00,0.66
6310.00,0.66
6309.00,0.66
6308.00,0.66
6307.00,0.66
6306.00,0.66
6305.00,0.66
6304.00,0.66
6303.00,0.66
6302.00,0.66
6301.00,0.66
6300.00,0.67
6299.00,0.67
6298.00,0.67
6297.00,0.67
6296.00,0.67
6295.00,0.67
6294.00,0.67
6293.00,0.67
6292.00,0.67
6291.00,0.68
6290.00,0.68
6289.00,0.68
6288.00,0.68
6287.00,0.68
6286.00,0.68
6285.00,0.68
6284.00,0.68
6283.00,0.68
6282.00,0.68
6281.00,0.68
6280.00,0.68
6279.00,0.68
6278.00,0.68
6277.00,0.69
6276.00,0.69
6275.00,0.69
6274.00,0.69
6273.00,0.69
6272.00,0.69
6271.00,0.69
6270.00,0.69
6269.00,0.69
6268.00,0.69
6267.00,0.69
6266.00,0.69
6265.00,0.69
6264.00,0.69
6263.00,0.69
6262.00,0.69
6261.00,0.69
6260.00,0.69
6259.00,0.69
6258.00,0.69
6257.00,0.69
6256.00,0.69
6255.00,0.69
6254.00,0.69
6253.00,0.69
6252.00,0.69
6251.00,0.69
6250.00,0.69
6249.00,0.69
6248.00,0.70
6247.00,0.70
6246.00,0.70
6245.00,0.70
6244.00,0.70
6243.00,0.70
6242.00,0.70
6241.00,0.70
6240.00,0.70
6239.00,0.71
6238.00,0.71
6237.00,0.71
6236.00,0.71
6235.00,0.71
6234.00,0.71
6233.00,0.71
6232.00,0.71
6231.00,0.72
6230.00,0.72
6229.00,0.72
6228.00,0.72
6227.00,0.72
6226.00,0.72
6225.00,0.72
6224.00,0.72
6223.00,0.72
6222.00,0.72
6221.00,0.72
6220.00,0.72
6219.00,0.72
6218.00,0.72
6217.00,0.72
6216.00,0.73
6215.00,0.73
6214.00,0.73
6213.00,0.73
6212.00,0.73
6211.00,0.73
6210.00,0.73
6209.00,0.73
6208.00,0.73
6207.00,0.73
6206.00,0.73
6205.00,0.74
6204.00,0.74
6203.00,0.74
6202.00,0.74
6201.00,0.74
6200.00,0.74
6199.00,0.74
6198.00,0.74
6197.00,0.74
6196.00,0.74
6195.00,0.75
6194.00,0.75
6193.00,0.75
6192.00,0.75
6191.00,0.75
6190.00,0.75
6189.00,0.75
6188.00,0.75
6187.00,0.75
6186.00,0.75
6185.00,0.75
6184.00,0.76
6183.00,0.76
6182.00,0.76
6181.00,0.76
6180.00,0.76
6179.00,0.76
6178.00,0.76
6177.00,0.76
6176.00,0.76
6175.00,0.76
6174.00,0.76
6173.00,0.76
6172.00,0.77
6171.00,0.77
6170.00,0.77
6169.00,0.77
6168.00,0.77
6167.00,0.77
6166.00,0.77
6165.00,0.77
6164.00,0.78
6163.00,0.78
6162.00,0.78
6161.00,0.78
6160.00,0.78
6159.00,0.78
6158.00,0.78
6157.00,0.78
6156.00,0.78
6155.00,0.79
6154.00,0.79
6153.00,0.79
6152.00,0.79
6151.00,0.79
6150.00,0.79
6149.00,0.79
6148.00,0.79
6147.00,0.79
6146.00,0.79
6145.00,0.79
6144.00,0.79
6143.00,0.79
6142.00,0.79
6141.00,0.80
6140.00,0.80
6139.00,0.80
6138.00,0.80
6137.00,0.80
6136.00,0.80
6135.00,0.80
6134.00,0.80
6133.00,0.80
6132.00,0.80
6131.00,0.81
6130.00,0.81
6129.00,0.81
6128.00,0.81
6127.00,0.81
6126.00,0.81
6125.00,0.81
6124.00,0.81
6123.00,0.82
6122.00,0.82
6121.00,0.82
6120.00,0.82
6119.00,0.82
6118.00,0.82
6117.00,0.82
6116.00,0.82
6115.00,0.82
6114.00,0.83
6113.00,0.83
6112.00,0.83
6111.00,0.83
6110.00,0.83
6109.00,0.83
6108.00,0.83
6107.00,0.83
6106.00,0.83
6105.00,0.83
6104.00,0.83
6103.00,0.83
6102.00,0.83
6101.00,0.83
6100.00,0.83
6099.00,0.83
6098.00,0.84
6097.00,0.84
6096.00,0.84
6095.00,0.84
6094.00,0.84
6093.00,0.84
6092.00,0.84
6091.00,0.84
6090.00,0.84
6089.00,0.84
6088.00,0.85
6087.00,0.85
6086.00,0.85
6085.00,0.85
6084.00,0.85
6083.00,0.85
6082.00,0.85
6081.00,0.85
6080.00,0.85
6079.00,0.85
6078.00,0.85
6077.00,0.85
6076.00,0.85
6075.00,0.85
6074.00,0.85
6073.00,0.85
6072.00,0.85
6071.00,0.86
6070.00,0.86
6069.00,0.86
6068.00,0.86
6067.00,0.86
6066.00,0.86
6065.00,0.86
6064.00,0.86
6063.00,0.86
6062.00,0.86
6061.00,0.86
6060.00,0.86
6059.00,0.86
6058.00,0.86
6057.00,0.86
6056.00,0.87
6055.00,0.87
6054.00,0.87
6053.00,0.87
6052.00,0.87
6051.00,0.87
6050.00,0.87
6049.00,0.87
6048.00,0.87
6047.00,0.87
6046.00,0.87
6045.00,0.87
6044.00,0.87
6043.00,0.87
6042.00,0.87
6041.00,0.87
6040.00,0.87
6039.00,0.87
6038.00,0.87
6037.00,0.87
6036.00,0.87
6035.00,0.87
6034.00,0.87
6033.00,0.87
6032.00,0.87
6031.00,0.87
6030.00,0.87
6029.00,0.87
6028.00,0.88
6027.00,0.88
6026.00,0.88
6025.00,0.88
6024.00,0.88
6023.00,0.88
6022.00,0.88
6021.00,0.88
6020.00,0.88
6019.00,0.88
6018.00,0.88
6017.00,0.88
6016.00,0.88
6015.00,0.88
6014.00,0.88
6013.00,0.88
6012.00,0.88
6011.00,0.88
6010.00,0.88
6009.00,0.88
6008.00,0.88
6007.00,0.88
6006.00,0.88
6005.00,0.88
6004.00,0.88
6003.00,0.88
6002.00,0.88
6001.00,0.88
6000.00,0.88
5999.00,0.88
5998.00,0.87
5997.00,0.87
5996.00,0.87
5995.00,0.87
5994.00,0.87
5993.00,0.87
5992.00,0.87
5991.00,0.87
5990.00,0.87
5989.00,0.87
5988.00,0.87
5987.00,0.86
5986.00,0.86
5985.00,0.86
5984.00,0.86
5983.00,0.86
5982.00,0.85
5981.00,0.85
5980.00,0.85
5979.00,0.85
5978.00,0.84
5977.00,0.84
5976.00,0.84
5975.00,0.84
5974.00,0.83
5973.00,0.83
5972.00,0.83
5971.00,0.82
5970.00,0.82
5969.00,0.82
5968.00,0.81
5967.00,0.81
5966.00,0.80
5965.00,0.80
5964.00,0.79
5963.00,0.79
5962.00,0.79
5961.00,0.78
5960.00,0.78
5959.00,0.77
5958.00,0.77
5957.00,0.76
5956.00,0.76
5955.00,0.76
5954.00,0.75
5953.00,0.75
5952.00,0.74
5951.00,0.74
5950.00,0.74
5949.00,0.73
5948.00,0.73
5947.00,0.73
5946.00,0.72
5945.00,0.72
5944.00,0.72
5943.00,0.72
5942.00,0.72
5941.00,0.71
5940.00,0.71
5939.00,0.71
5938.00,0.71
5937.00,0.71
5936.00,0.71
5935.00,0.71
5934.00,0.71
5933.00,0.71
5932.00,0.71
5931.00,0.71
5930.00,0.71
5929.00,0.71
5928.00,0.71
5927.00,0.71
5926.00,0.71
5925.00,0.71
5924.00,0.71
5923.00,0.70
5922.00,0.70
5921.00,0.70
5920.00,0.70
5919.00,0.70
5918.00,0.70
5917.00,0.70
5916.00,0.69
5915.00,0.69
5914.00,0.69
5913.00,0.69
5912.00,0.69
5911.00,0.69
5910.00,0.69
5909.00,0.68
5908.00,0.68
5907.00,0.68
5906.00,0.68
5905.00,0.68
5904.00,0.68
5903.00,0.68
5902.00,0.68
5901.00,0.68
5900.00,0.68
5899.00,0.68
5898.00,0.68
5897.00,0.68
5896.00,0.68
5895.00,0.68
5894.00,0.68
5893.00,0.68
5892.00,0.69
5891.00,0.69
5890.00,0.69
5889.00,0.69
5888.00,0.69
5887.00,0.69
5886.00,0.70
5885.00,0.70
5884.00,0.70
5883.00,0.70
5882.00,0.70
5881.00,0.70
5880.00,0.71
5879.00,0.71
5878.00,0.71
5877.00,0.71
5876.00,0.71
5875.00,0.71
5874.00,0.71
5873.00,0.72
5872.00,0.72
5871.00,0.72
5870.00,0.72
5869.00,0.72
5868.00,0.72
5867.00,0.73
5866.00,0.73
5865.00,0.73
5864.00,0.73
5863.00,0.73
5862.00,0.73
5861.00,0.73
5860.00,0.74
5859.00,0.74
5858.00,0.74
5857.00,0.74
5856.00,0.74
5855.00,0.74
5854.00,0.74
5853.00,0.74
5852.00,0.74
5851.00,0.74
5850.00,0.74
5849.00,0.75
5848.00,0.75
5847.00,0.75
5846.00,0.75
5845.00,0.75
5844.00,0.75
5843.00,0.75
5842.00,0.75
5841.00,0.75
5840.00,0.74
5839.00,0.74
5838.00,0.74
5837.00,0.74
5836.00,0.74
5835.00,0.74
5834.00,0.74
5833.00,0.74
5832.00,0.74
5831.00,0.74
5830.00,0.74
5829.00,0.74
5828.00,0.74
5827.00,0.74
5826.00,0.74
5825.00,0.75
5824.00,0.75
5823.00,0.75
5822.00,0.75
5821.00,0.75
5820.00,0.75
5819.00,0.75
5818.00,0.75
5817.00,0.75
5816.00,0.75
5815.00,0.75
5814.00,0.75
5813.00,0.75
5812.00,0.75
5811.00,0.75
5810.00,0.75
5809.00,0.75
5808.00,0.74
5807.00,0.74
5806.00,0.74
5805.00,0.74
5804.00,0.74
5803.00,0.74
5802.00,0.74
5801.00,0.74
5800.00,0.74
5799.00,0.74
5798.00,0.74
5797.00,0.74
5796.00,0.74
5795.00,0.73
5794.00,0.73
5793.00,0.73
5792.00,0.73
5791.00,0.73
5790.00,0.73
5789.00,0.73
5788.00,0.73
5787.00,0.73
5786.00,0.72
5785.00,0.72
5784.00,0.72
5783.00,0.72
5782.00,0.72
5781.00,0.72
5780.00,0.72
5779.00,0.72
5778.00,0.72
5777.00,0.72
5776.00,0.72
5775.00,0.72
5774.00,0.71
5773.00,0.71
5772.00,0.71
5771.00,0.72
5770.00,0.72
5769.00,0.72
5768.00,0.72
5767.00,0.72
5766.00,0.72
5765.00,0.72
5764.00,0.72
5763.00,0.72
5762.00,0.72
5761.00,0.72
5760.00,0.73
5759.00,0.73
5758.00,0.73
5757.00,0.73
5756.00,0.73
5755.00,0.73
5754.00,0.74
5753.00,0.74
5752.00,0.74
5751.00,0.74
5750.00,0.74
5749.00,0.74
5748.00,0.75
5747.00,0.75
5746.00,0.75
5745.00,0.75
5744.00,0.76
5743.00,0.76
5742.00,0.76
5741.00,0.76
5740.00,0.76
5739.00,0.76
5738.00,0.77
5737.00,0.77
5736.00,0.77
5735.00,0.77
5734.00,0.77
5733.00,0.77
5732.00,0.77
5731.00,0.77
5730.00,0.78
5729.00,0.78
5728.00,0.78
5727.00,0.78
5726.00,0.78
5725.00,0.78
5724.00,0.78
5723.00,0.78
5722.00,0.78
5721.00,0.78
5720.00,0.78
5719.00,0.78
5718.00,0.78
5717.00,0.78
5716.00,0.78
5715.00,0.78
5714.00,0.78
5713.00,0.78
5712.00,0.78
5711.00,0.78
5710.00,0.78
5709.00,0.78
5708.00,0.78
5707.00,0.78
5706.00,0.78
5705.00,0.77
5704.00,0.77
5703.00,0.77
5702.00,0.77
5701.00,0.77
5700.00,0.77
5699.00,0.77
5698.00,0.77
5697.00,0.77
5696.00,0.77
5695.00,0.77
5694.00,0.77
5693.00,0.77
5692.00,0.77
5691.00,0.77
5690.00,0.77
5689.00,0.76
5688.00,0.76
5687.00,0.76
5686.00,0.76
5685.00,0.76
5684.00,0.76
5683.00,0.76
5682.00,0.76
5681.00,0.76
5680.00,0.76
5679.00,0.76
5678.00,0.76
5677.00,0.76
5676.00,0.76
5675.00,0.76
5674.00,0.76
5673.00,0.76
5672.00,0.76
5671.00,0.76
5670.00,0.76
5669.00,0.76
5668.00,0.76
5667.00,0.76
5666.00,0.76
5665.00,0.76
5664.00,0.76
5663.00,0.76
5662.00,0.76
5661.00,0.76
5660.00,0.76
5659.00,0.76
5658.00,0.76
5657.00,0.77
5656.00,0.77
5655.00,0.77
5654.00,0.77
5653.00,0.77
5652.00,0.77
5651.00,0.77
5650.00,0.77
5649.00,0.77
5648.00,0.78
5647.00,0.78
5646.00,0.78
5645.00,0.78
5644.00,0.78
5643.00,0.78
5642.00,0.78
5641.00,0.78
5640.00,0.79
5639.00,0.79
5638.00,0.79
5637.00,0.79
5636.00,0.79
5635.00,0.79
5634.00,0.79
5633.00,0.79
5632.00,0.79
5631.00,0.80
5630.00,0.80
5629.00,0.80
5628.00,0.80
5627.00,0.80
5626.00,0.80
5625.00,0.80
5624.00,0.80
5623.00,0.80
5622.00,0.80
5621.00,0.80
5620.00,0.81
5619.00,0.81
5618.00,0.81
5617.00,0.81
5616.00,0.81
5615.00,0.81
5614.00,0.81
5613.00,0.81
5612.00,0.81
5611.00,0.81
5610.00,0.82
5609.00,0.82
5608.00,0.82
5607.00,0.82
5606.00,0.82
5605.00,0.82
5604.00,0.82
5603.00,0.82
5602.00,0.82
5601.00,0.82
5600.00,0.82
5599.00,0.82
5598.00,0.83
5597.00,0.83
5596.00,0.83
5595.00,0.83
5594.00,0.83
5593.00,0.83
5592.00,0.83
5591.00,0.84
5590.00,0.84
5589.00,0.84
5588.00,0.84
5587.00,0.84
5586.00,0.84
5585.00,0.84
5584.00,0.85
5583.00,0.85
5582.00,0.85
5581.00,0.85
5580.00,0.85
5579.00,0.85
5578.00,0.85
5577.00,0.85
5576.00,0.85
5575.00,0.85
5574.00,0.85
5573.00,0.85
5572.00,0.86
5571.00,0.86
5570.00,0.86
5569.00,0.86
5568.00,0.86
5567.00,0.86
5566.00,0.86
5565.00,0.86
5564.00,0.86
5563.00,0.86
5562.00,0.86
5561.00,0.86
5560.00,0.86
5559.00,0.86
5558.00,0.87
5557.00,0.87
5556.00,0.87
5555.00,0.87
5554.00,0.87
5553.00,0.87
5552.00,0.87
5551.00,0.87
5550.00,0.87
5549.00,0.87
5548.00,0.88
5547.00,0.88
5546.00,0.88
5545.00,0.88
5544.00,0.88
5543.00,0.88
5542.00,0.88
5541.00,0.88
5540.00,0.88
5539.00,0.88
5538.00,0.88
5537.00,0.88
5536.00,0.88
5535.00,0.88
5534.00,0.89
5533.00,0.89
5532.00,0.89
5531.00,0.89
5530.00,0.89
5529.00,0.89
5528.00,0.89
5527.00,0.89
5526.00,0.89
5525.00,0.89
5524.00,0.89
5523.00,0.89
5522.00,0.89
5521.00,0.89
5520.00,0.89
5519.00,0.89
5518.00,0.89
5517.00,0.89
5516.00,0.89
5515.00,0.89
5514.00,0.89
5513.00,0.90
5512.00,0.90
5511.00,0.90
5510.00,0.90
5509.00,0.90
5508.00,0.90
5507.00,0.90
5506.00,0.90
5505.00,0.90
5504.00,0.90
5503.00,0.90
5502.00,0.90
5501.00,0.90
5500.00,0.90
5499.00,0.90
5498.00,0.90
5497.00,0.90
5496.00,0.90
5495.00,0.90
5494.00,0.90
5493.00,0.91
5492.00,0.91
5491.00,0.91
5490.00,0.91
5489.00,0.91
5488.00,0.91
5487.00,0.91
5486.00,0.91
5485.00,0.91
5484.00,0.91
5483.00,0.91
5482.00,0.91
5481.00,0.91
5480.00,0.91
5479.00,0.91
5478.00,0.91
5477.00,0.91
5476.00,0.92
5475.00,0.92
5474.00,0.92
5473.00,0.92
5472.00,0.92
5471.00,0.92
5470.00,0.92
5469.00,0.92
5468.00,0.92
5467.00,0.92
5466.00,0.92
5465.00,0.92
5464.00,0.92
5463.00,0.93
5462.00,0.93
5461.00,0.93
5460.00,0.93
5459.00,0.93
5458.00,0.93
5457.00,0.93
5456.00,0.93
5455.00,0.93
5454.00,0.93
5453.00,0.93
5452.00,0.93
5451.00,0.93
5450.00,0.93
5449.00,0.93
5448.00,0.93
5447.00,0.93
5446.00,0.93
5445.00,0.93
5444.00,0.93
5443.00,0.93
5442.00,0.93
5441.00,0.93
5440.00,0.93
5439.00,0.93
5438.00,0.93
5437.00,0.93
5436.00,0.93
5435.00,0.93
5434.00,0.93
5433.00,0.93
5432.00,0.93
5431.00,0.93
5430.00,0.93
5429.00,0.93
5428.00,0.93
5427.00,0.93
5426.00,0.93
5425.00,0.93
5424.00,0.93
5423.00,0.93
5422.00,0.93
5421.00,0.94
5420.00,0.94
5419.00,0.94
5418.00,0.94
5417.00,0.94
5416.00,0.94
5415.00,0.94
5414.00,0.93
5413.00,0.93
5412.00,0.93
5411.00,0.93
5410.00,0.93
5409.00,0.93
5408.00,0.93
5407.00,0.93
5406.00,0.93
5405.00,0.93
5404.00,0.93
5403.00,0.93
5402.00,0.93
5401.00,0.93
5400.00,0.93
5399.00,0.93
5398.00,0.93
5397.00,0.93
5396.00,0.93
5395.00,0.93
5394.00,0.93
5393.00,0.92
5392.00,0.92
5391.00,0.92
5390.00,0.92
5389.00,0.92
5388.00,0.92
5387.00,0.92
5386.00,0.92
5385.00,0.91
5384.00,0.91
5383.00,0.91
5382.00,0.91
5381.00,0.91
5380.00,0.91
5379.00,0.90
5378.00,0.90
5377.00,0.90
5376.00,0.90
5375.00,0.89
5374.00,0.89
5373.00,0.89
5372.00,0.88
5371.00,0.88
5370.00,0.88
5369.00,0.88
5368.00,0.87
5367.00,0.87
5366.00,0.86
5365.00,0.86
5364.00,0.86
5363.00,0.85
5362.00,0.85
5361.00,0.84
5360.00,0.84
5359.00,0.84
5358.00,0.83
5357.00,0.83
5356.00,0.82
5355.00,0.82
5354.00,0.81
5353.00,0.81
5352.00,0.80
5351.00,0.80
5350.00,0.79
5349.00,0.78
5348.00,0.78
5347.00,0.77
5346.00,0.77
5345.00,0.76
5344.00,0.76
5343.00,0.75
5342.00,0.74
5341.00,0.74
5340.00,0.73
5339.00,0.72
5338.00,0.72
5337.00,0.71
5336.00,0.71
5335.00,0.70
5334.00,0.70
5333.00,0.69
5332.00,0.68
5331.00,0.68
5330.00,0.67
5329.00,0.67
5328.00,0.66
5327.00,0.66
5326.00,0.65
5325.00,0.64
5324.00,0.64
5323.00,0.63
5322.00,0.63
5321.00,0.62
5320.00,0.62
5319.00,0.61
5318.00,0.61
5317.00,0.60
5316.00,0.60
5315.00,0.59
5314.00,0.59
5313.00,0.59
5312.00,0.58
5311.00,0.58
5310.00,0.57
5309.00,0.57
5308.00,0.57
5307.00,0.56
5306.00,0.56
5305.00,0.56
5304.00,0.56
5303.00,0.55
5302.00,0.55
5301.00,0.55
5300.00,0.55
5299.00,0.55
5298.00,0.54
5297.00,0.54
5296.00,0.54
5295.00,0.54
5294.00,0.54
5293.00,0.54
5292.00,0.53
5291.00,0.53
5290.00,0.53
5289.00,0.53
5288.00,0.53
5287.00,0.53
5286.00,0.53
5285.00,0.52
5284.00,0.52
5283.00,0.52
5282.00,0.52
5281.00,0.52
5280.00,0.52
5279.00,0.52
5278.00,0.52
5277.00,0.52
5276.00,0.52
5275.00,0.52
5274.00,0.52
5273.00,0.52
5272.00,0.52
5271.00,0.52
5270.00,0.52
5269.00,0.52
5268.00,0.52
5267.00,0.52
5266.00,0.52
5265.00,0.52
5264.00,0.52
5263.00,0.52
5262.00,0.52
5261.00,0.52
5260.00,0.52
5259.00,0.52
5258.00,0.52
5257.00,0.52
5256.00,0.52
5255.00,0.52
5254.00,0.52
5253.00,0.52
5252.00,0.52
5251.00,0.52
5250.00,0.52
5249.00,0.52
5248.00,0.52
5247.00,0.52
5246.00,0.52
5245.00,0.52
5244.00,0.52
5243.00,0.52
5242.00,0.52
5241.00,0.52
5240.00,0.52
5239.00,0.52
5238.00,0.52
5237.00,0.52
5236.00,0.52
5235.00,0.52
5234.00,0.52
5233.00,0.52
5232.00,0.52
5231.00,0.52
5230.00,0.52
5229.00,0.52
5228.00,0.52
5227.00,0.52
5226.00,0.52
5225.00,0.52
5224.00,0.52
5223.00,0.52
5222.00,0.52
5221.00,0.52
5220.00,0.52
5219.00,0.52
5218.00,0.52
5217.00,0.52
5216.00,0.52
5215.00,0.52
5214.00,0.52
5213.00,0.52
5212.00,0.52
5211.00,0.52
5210.00,0.52
5209.00,0.52
5208.00,0.52
5207.00,0.53
5206.00,0.53
5205.00,0.53
5204.00,0.53
5203.00,0.53
5202.00,0.53
5201.00,0.53
5200.00,0.53
5199.00,0.53
5198.00,0.53
5197.00,0.53
5196.00,0.53
5195.00,0.53
5194.00,0.53
5193.00,0.53
5192.00,0.53
5191.00,0.53
5190.00,0.53
5189.00,0.53
5188.00,0.53
5187.00,0.53
5186.00,0.53
5185.00,0.53
5184.00,0.53
5183.00,0.53
5182.00,0.53
5181.00,0.53
5180.00,0.53
5179.00,0.53
5178.00,0.53
5177.00,0.53
5176.00,0.53
5175.00,0.53
5174.00,0.53
5173.00,0.53
5172.00,0.53
5171.00,0.53
5170.00,0.53
5169.00,0.53
5168.00,0.54
5167.00,0.54
5166.00,0.54
5165.00,0.54
5164.00,0.54
5163.00,0.54
5162.00,0.54
5161.00,0.54
5160.00,0.54
5159.00,0.54
5158.00,0.54
5157.00,0.54
5156.00,0.54
5155.00,0.54
5154.00,0.54
5153.00,0.54
5152.00,0.54
5151.00,0.54
5150.00,0.54
5149.00,0.54
5148.00,0.54
5147.00,0.54
5146.00,0.54
5145.00,0.54
5144.00,0.54
5143.00,0.54
5142.00,0.54
5141.00,0.54
5140.00,0.55
5139.00,0.55
5138.00,0.55
5137.00,0.55
5136.00,0.55
5135.00,0.55
5134.00,0.55
5133.00,0.55
5132.00,0.55
5131.00,0.55
5130.00,0.55
5129.00,0.55
5128.00,0.55
5127.00,0.55
5126.00,0.55
5125.00,0.55
5124.00,0.55
5123.00,0.55
5122.00,0.55
5121.00,0.55
5120.00,0.55
5119.00,0.55
5118.00,0.55
5117.00,0.55
5116.00,0.55
5115.00,0.55
5114.00,0.56
5113.00,0.56
5112.00,0.56
5111.00,0.56
5110.00,0.56
5109.00,0.56
5108.00,0.56
5107.00,0.56
5106.00,0.56
5105.00,0.56
5104.00,0.56
5103.00,0.56
5102.00,0.56
5101.00,0.56
5100.00,0.56
5099.00,0.56
5098.00,0.56
5097.00,0.56
5096.00,0.56
5095.00,0.56
5094.00,0.56
5093.00,0.56
5092.00,0.56
5091.00,0.56
5090.00,0.56
5089.00,0.56
5088.00,0.56
5087.00,0.56
5086.00,0.57
5085.00,0.57
5084.00,0.57
5083.00,0.57
5082.00,0.57
5081.00,0.57
5080.00,0.57
5079.00,0.57
5078.00,0.57
5077.00,0.57
5076.00,0.57
5075.00,0.57
5074.00,0.57
5073.00,0.57
5072.00,0.57
5071.00,0.57
5070.00,0.57
5069.00,0.57
5068.00,0.57
5067.00,0.57
5066.00,0.57
5065.00,0.57
5064.00,0.57
5063.00,0.57
5062.00,0.57
5061.00,0.57
5060.00,0.57
5059.00,0.57
5058.00,0.57
5057.00,0.57
5056.00,0.57
5055.00,0.57
5054.00,0.57
5053.00,0.57
5052.00,0.57
5051.00,0.57
5050.00,0.57
5049.00,0.58
5048.00,0.58
5047.00,0.58
5046.00,0.58
5045.00,0.58
5044.00,0.58
5043.00,0.58
5042.00,0.58
5041.00,0.58
5040.00,0.58
5039.00,0.58
5038.00,0.58
5037.00,0.58
5036.00,0.58
5035.00,0.58
5034.00,0.58
5033.00,0.58
5032.00,0.58
5031.00,0.58
5030.00,0.58
5029.00,0.58
5028.00,0.58
5027.00,0.58
5026.00,0.58
5025.00,0.58
5024.00,0.58
5023.00,0.58
5022.00,0.58
5021.00,0.58
5020.00,0.58
5019.00,0.59
5018.00,0.59
5017.00,0.59
5016.00,0.59
5015.00,0.59
5014.00,0.59
5013.00,0.59
5012.00,0.59
5011.00,0.59
5010.00,0.59
5009.00,0.59
5008.00,0.59
5007.00,0.59
5006.00,0.59
5005.00,0.59
5004.00,0.59
5003.00,0.59
5002.00,0.59
5001.00,0.59
5000.00,0.59
4999.00,0.59
4998.00,0.60
4997.00,0.60
4996.00,0.60
4995.00,0.60
4994.00,0.60
4993.00,0.60
4992.00,0.60
4991.00,0.60
4990.00,0.60
4989.00,0.60
4988.00,0.60
4987.00,0.60
4986.00,0.60
4985.00,0.60
4984.00,0.60
4983.00,0.60
4982.00,0.60
4981.00,0.60
4980.00,0.60
4979.00,0.60
4978.00,0.60
4977.00,0.60
4976.00,0.61
4975.00,0.61
4974.00,0.61
4973.00,0.61
4972.00,0.61
4971.00,0.61
4970.00,0.61
4969.00,0.61
4968.00,0.61
4967.00,0.61
4966.00,0.61
4965.00,0.61
4964.00,0.61
4963.00,0.61
4962.00,0.62
4961.00,0.62
4960.00,0.62
4959.00,0.62
4958.00,0.62
4957.00,0.62
4956.00,0.62
4955.00,0.62
4954.00,0.62
4953.00,0.62
4952.00,0.62
4951.00,0.62
4950.00,0.62
4949.00,0.62
4948.00,0.62
4947.00,0.62
4946.00,0.62
4945.00,0.62
4944.00,0.62
4943.00,0.62
4942.00,0.62
4941.00,0.62
4940.00,0.62
4939.00,0.62
4938.00,0.62
4937.00,0.62
4936.00,0.62
4935.00,0.62
4934.00,0.62
4933.00,0.62
4932.00,0.62
4931.00,0.62
4930.00,0.62
4929.00,0.62
4928.00,0.63
4927.00,0.63
4926.00,0.63
4925.00,0.63
4924.00,0.63
4923.00,0.63
4922.00,0.63
4921.00,0.63
4920.00,0.63
4919.00,0.63
4918.00,0.63
4917.00,0.63
4916.00,0.63
4915.00,0.63
4914.00,0.63
4913.00,0.63
4912.00,0.64
4911.00,0.64
4910.00,0.64
4909.00,0.64
4908.00,0.64
4907.00,0.64
4906.00,0.64
4905.00,0.64
4904.00,0.64
4903.00,0.64
4902.00,0.64
4901.00,0.64
4900.00,0.64
4899.00,0.64
4898.00,0.64
4897.00,0.64
4896.00,0.64
4895.00,0.64
4894.00,0.64
4893.00,0.64
4892.00,0.64
4891.00,0.64
4890.00,0.64
4889.00,0.64
4888.00,0.64
4887.00,0.64
4886.00,0.64
4885.00,0.64
4884.00,0.64
4883.00,0.64
4882.00,0.64
4881.00,0.64
4880.00,0.64
4879.00,0.64
4878.00,0.64
4877.00,0.64
4876.00,0.64
4875.00,0.64
4874.00,0.64
4873.00,0.64
4872.00,0.64
4871.00,0.65
4870.00,0.65
4869.00,0.65
4868.00,0.65
4867.00,0.65
4866.00,0.65
4865.00,0.65
4864.00,0.65
4863.00,0.65
4862.00,0.65
4861.00,0.65
4860.00,0.65
4859.00,0.65
4858.00,0.65
4857.00,0.66
4856.00,0.66
4855.00,0.66
4854.00,0.66
4853.00,0.66
4852.00,0.66
4851.00,0.66
4850.00,0.66
4849.00,0.66
4848.00,0.66
4847.00,0.66
4846.00,0.66
4845.00,0.66
4844.00,0.66
4843.00,0.66
4842.00,0.66
4841.00,0.66
4840.00,0.66
4839.00,0.66
4838.00,0.66
4837.00,0.66
4836.00,0.66
4835.00,0.66
4834.00,0.66
4833.00,0.66
4832.00,0.66
4831.00,0.66
4830.00,0.66
4829.00,0.66
4828.00,0.66
4827.00,0.66
4826.00,0.67
4825.00,0.67
4824.00,0.67
4823.00,0.67
4822.00,0.67
4821.00,0.67
4820.00,0.67
4819.00,0.67
4818.00,0.67
4817.00,0.67
4816.00,0.67
4815.00,0.67
4814.00,0.67
4813.00,0.67
4812.00,0.67
4811.00,0.67
4810.00,0.67
4809.00,0.67
4808.00,0.67
4807.00,0.67
4806.00,0.67
4805.00,0.67
4804.00,0.67
4803.00,0.67
4802.00,0.67
4801.00,0.67
4800.00,0.67
4799.00,0.67
4798.00,0.67
4797.00,0.67
4796.00,0.67
4795.00,0.67
4794.00,0.68
4793.00,0.68
4792.00,0.68
4791.00,0.68
4790.00,0.68
4789.00,0.68
4788.00,0.68
4787.00,0.68
4786.00,0.68
4785.00,0.68
4784.00,0.68
4783.00,0.68
4782.00,0.69
4781.00,0.69
4780.00,0.69
4779.00,0.69
4778.00,0.69
4777.00,0.69
4776.00,0.69
4775.00,0.69
4774.00,0.69
4773.00,0.69
4772.00,0.69
4771.00,0.69
4770.00,0.69
4769.00,0.69
4768.00,0.69
4767.00,0.69
4766.00,0.70
4765.00,0.70
4764.00,0.70
4763.00,0.70
4762.00,0.70
4761.00,0.70
4760.00,0.70
4759.00,0.70
4758.00,0.70
4757.00,0.70
4756.00,0.70
4755.00,0.70
4754.00,0.70
4753.00,0.70
4752.00,0.71
4751.00,0.71
4750.00,0.71
4749.00,0.71
4748.00,0.71
4747.00,0.71
4746.00,0.71
4745.00,0.71
4744.00,0.71
4743.00,0.71
4742.00,0.71
4741.00,0.71
4740.00,0.71
4739.00,0.71
4738.00,0.72
4737.00,0.72
4736.00,0.72
4735.00,0.72
4734.00,0.72
4733.00,0.72
4732.00,0.72
4731.00,0.72
4730.00,0.72
4729.00,0.72
4728.00,0.72
4727.00,0.72
4726.00,0.72
4725.00,0.73
4724.00,0.73
4723.00,0.73
4722.00,0.73
4721.00,0.73
4720.00,0.73
4719.00,0.73
4718.00,0.73
4717.00,0.73
4716.00,0.73
4715.00,0.73
4714.00,0.73
4713.00,0.74
4712.00,0.74
4711.00,0.74
4710.00,0.74
4709.00,0.74
4708.00,0.74
4707.00,0.74
4706.00,0.74
4705.00,0.74
4704.00,0.74
4703.00,0.74
4702.00,0.74
4701.00,0.74
4700.00,0.74
4699.00,0.74
4698.00,0.74
4697.00,0.75
4696.00,0.75
4695.00,0.75
4694.00,0.75
4693.00,0.75
4692.00,0.75
4691.00,0.75
4690.00,0.75
4689.00,0.75
4688.00,0.75
4687.00,0.75
4686.00,0.76
4685.00,0.76
4684.00,0.76
4683.00,0.76
4682.00,0.76
4681.00,0.76
4680.00,0.76
4679.00,0.76
4678.00,0.76
4677.00,0.76
4676.00,0.77
4675.00,0.77
4674.00,0.77
4673.00,0.77
4672.00,0.77
4671.00,0.77
4670.00,0.77
4669.00,0.77
4668.00,0.77
4667.00,0.77
4666.00,0.78
4665.00,0.78
4664.00,0.78
4663.00,0.78
4662.00,0.78
4661.00,0.78
4660.00,0.78
4659.00,0.78
4658.00,0.78
4657.00,0.78
4656.00,0.78
4655.00,0.78
4654.00,0.78
4653.00,0.78
4652.00,0.78
4651.00,0.78
4650.00,0.78
4649.00,0.78
4648.00,0.78
4647.00,0.78
4646.00,0.78
4645.00,0.79
4644.00,0.79
4643.00,0.79
4642.00,0.79
4641.00,0.79
4640.00,0.79
4639.00,0.79
4638.00,0.79
4637.00,0.79
4636.00,0.79
4635.00,0.79
4634.00,0.80
4633.00,0.80
4632.00,0.80
4631.00,0.80
4630.00,0.80
4629.00,0.80
4628.00,0.80
4627.00,0.80
4626.00,0.80
4625.00,0.80
4624.00,0.80
4623.00,0.80
4622.00,0.80
4621.00,0.81
4620.00,0.81
4619.00,0.81
4618.00,0.81
4617.00,0.81
4616.00,0.81
4615.00,0.81
4614.00,0.81
4613.00,0.81
4612.00,0.81
4611.00,0.81
4610.00,0.81
4609.00,0.81
4608.00,0.81
4607.00,0.81
4606.00,0.81
4605.00,0.81
4604.00,0.81
4603.00,0.81
4602.00,0.81
4601.00,0.81
4600.00,0.81
4599.00,0.81
4598.00,0.81
4597.00,0.81
4596.00,0.81
4595.00,0.81
4594.00,0.81
4593.00,0.81
4592.00,0.81
4591.00,0.82
4590.00,0.82
4589.00,0.82
4588.00,0.82
4587.00,0.82
4586.00,0.82
4585.00,0.82
4584.00,0.82
4583.00,0.82
4582.00,0.82
4581.00,0.82
4580.00,0.82
4579.00,0.82
4578.00,0.82
4577.00,0.82
4576.00,0.82
4575.00,0.82
4574.00,0.82
4573.00,0.82
4572.00,0.82
4571.00,0.82
4570.00,0.82
4569.00,0.82
4568.00,0.82
4567.00,0.82
4566.00,0.83
4565.00,0.83
4564.00,0.83
4563.00,0.83
4562.00,0.83
4561.00,0.83
4560.00,0.83
4559.00,0.83
4558.00,0.83
4557.00,0.83
4556.00,0.83
4555.00,0.83
4554.00,0.83
4553.00,0.83
4552.00,0.83
4551.00,0.84
4550.00,0.84
4549.00,0.84
4548.00,0.84
4547.00,0.84
4546.00,0.84
4545.00,0.84
4544.00,0.84
4543.00,0.84
4542.00,0.84
4541.00,0.84
4540.00,0.84
4539.00,0.84
4538.00,0.84
4537.00,0.84
4536.00,0.84
4535.00,0.84
4534.00,0.84
4533.00,0.84
4532.00,0.84
4531.00,0.84
4530.00,0.84
4529.00,0.84
4528.00,0.84
4527.00,0.84
4526.00,0.84
4525.00,0.84
4524.00,0.84
4523.00,0.84
4522.00,0.84
4521.00,0.84
4520.00,0.84
4519.00,0.84
4518.00,0.84
4517.00,0.84
4516.00,0.84
4515.00,0.84
4514.00,0.84
4513.00,0.84
4512.00,0.84
4511.00,0.84
4510.00,0.84
4509.00,0.84
4508.00,0.84
4507.00,0.84
4506.00,0.84
4505.00,0.84
4504.00,0.84
4503.00,0.84
4502.00,0.84
4501.00,0.84
4500.00,0.84
4499.00,0.84
4498.00,0.84
4497.00,0.84
4496.00,0.84
4495.00,0.84
4494.00,0.84
4493.00,0.84
4492.00,0.84
4491.00,0.84
4490.00,0.83
4489.00,0.83
4488.00,0.83
4487.00,0.83
4486.00,0.83
4485.00,0.83
4484.00,0.83
4483.00,0.83
4482.00,0.83
4481.00,0.83
4480.00,0.83
4479.00,0.83
4478.00,0.83
4477.00,0.83
4476.00,0.83
4475.00,0.83
4474.00,0.83
4473.00,0.83
4472.00,0.83
4471.00,0.83
4470.00,0.83
4469.00,0.83
4468.00,0.83
4467.00,0.83
4466.00,0.82
4465.00,0.82
4464.00,0.82
4463.00,0.82
4462.00,0.82
4461.00,0.82
4460.00,0.82
4459.00,0.82
4458.00,0.81
4457.00,0.81
4456.00,0.81
4455.00,0.81
4454.00,0.81
4453.00,0.81
4452.00,0.80
4451.00,0.80
4450.00,0.80
4449.00,0.80
4448.00,0.80
4447.00,0.79
4446.00,0.79
4445.00,0.79
4444.00,0.79
4443.00,0.79
4442.00,0.79
4441.00,0.79
4440.00,0.78
4439.00,0.78
4438.00,0.78
4437.00,0.78
4436.00,0.78
4435.00,0.78
4434.00,0.78
4433.00,0.78
4432.00,0.77
4431.00,0.77
4430.00,0.77
4429.00,0.77
4428.00,0.77
4427.00,0.77
4426.00,0.77
4425.00,0.77
4424.00,0.77
4423.00,0.77
4422.00,0.77
4421.00,0.77
4420.00,0.77
4419.00,0.77
4418.00,0.77
4417.00,0.77
4416.00,0.77
4415.00,0.77
4414.00,0.77
4413.00,0.77
4412.00,0.77
4411.00,0.77
4410.00,0.77
4409.00,0.77
4408.00,0.77
4407.00,0.77
4406.00,0.77
4405.00,0.77
4404.00,0.77
4403.00,0.77
4402.00,0.77
4401.00,0.77
4400.00,0.77
4399.00,0.77
4398.00,0.77
4397.00,0.77
4396.00,0.77
4395.00,0.77
4394.00,0.77
4393.00,0.77
4392.00,0.78
4391.00,0.78
4390.00,0.78
4389.00,0.78
4388.00,0.78
4387.00,0.78
4386.00,0.78
4385.00,0.78
4384.00,0.78
4383.00,0.78
4382.00,0.78
4381.00,0.78
4380.00,0.78
4379.00,0.78
4378.00,0.78
4377.00,0.78
4376.00,0.78
4375.00,0.79
4374.00,0.79
4373.00,0.79
4372.00,0.79
4371.00,0.79
4370.00,0.79
4369.00,0.79
4368.00,0.79
4367.00,0.79
4366.00,0.79
4365.00,0.79
4364.00,0.79
4363.00,0.79
4362.00,0.79
4361.00,0.79
4360.00,0.79
4359.00,0.79
4358.00,0.79
4357.00,0.79
4356.00,0.79
4355.00,0.79
4354.00,0.79
4353.00,0.79
4352.00,0.79
4351.00,0.80
4350.00,0.80
4349.00,0.80
4348.00,0.80
4347.00,0.80
4346.00,0.80
4345.00,0.80
4344.00,0.80
4343.00,0.80
4342.00,0.80
4341.00,0.80
4340.00,0.80
4339.00,0.80
4338.00,0.80
4337.00,0.80
4336.00,0.80
4335.00,0.80
4334.00,0.80
4333.00,0.80
4332.00,0.80
4331.00,0.80
4330.00,0.80
4329.00,0.80
4328.00,0.80
4327.00,0.80
4326.00,0.80
4325.00,0.80
4324.00,0.80
4323.00,0.80
4322.00,0.80
4321.00,0.80
4320.00,0.81
4319.00,0.81
4318.00,0.81
4317.00,0.81
4316.00,0.81
4315.00,0.81
4314.00,0.81
4313.00,0.82
4312.00,0.82
4311.00,0.82
4310.00,0.82
4309.00,0.82
4308.00,0.82
4307.00,0.82
4306.00,0.82
4305.00,0.82
4304.00,0.82
4303.00,0.82
4302.00,0.82
4301.00,0.83
4300.00,0.83
4299.00,0.83
4298.00,0.83
4297.00,0.83
4296.00,0.83
4295.00,0.83
4294.00,0.83
4293.00,0.83
4292.00,0.83
4291.00,0.83
4290.00,0.83
4289.00,0.83
4288.00,0.83
4287.00,0.83
4286.00,0.83
4285.00,0.83
4284.00,0.83
4283.00,0.83
4282.00,0.83
4281.00,0.83
4280.00,0.83
4279.00,0.83
4278.00,0.83
4277.00,0.83
4276.00,0.83
4275.00,0.83
4274.00,0.83
4273.00,0.83
4272.00,0.83
4271.00,0.83
4270.00,0.83
4269.00,0.83
4268.00,0.83
4267.00,0.83
4266.00,0.83
4265.00,0.84
4264.00,0.84
4263.00,0.84
4262.00,0.84
4261.00,0.84
4260.00,0.84
4259.00,0.84
4258.00,0.84
4257.00,0.84
4256.00,0.84
4255.00,0.84
4254.00,0.84
4253.00,0.84
4252.00,0.84
4251.00,0.84
4250.00,0.84
4249.00,0.84
4248.00,0.84
4247.00,0.84
4246.00,0.85
4245.00,0.85
4244.00,0.85
4243.00,0.85
4242.00,0.85
4241.00,0.85
4240.00,0.85
4239.00,0.85
4238.00,0.85
4237.00,0.85
4236.00,0.85
4235.00,0.85
4234.00,0.85
4233.00,0.85
4232.00,0.85
4231.00,0.86
4230.00,0.86
4229.00,0.86
4228.00,0.86
4227.00,0.86
4226.00,0.86
4225.00,0.86
4224.00,0.86
4223.00,0.86
4222.00,0.86
4221.00,0.86
4220.00,0.86
4219.00,0.86
4218.00,0.86
4217.00,0.86
4216.00,0.86
4215.00,0.86
4214.00,0.86
4213.00,0.86
4212.00,0.86
4211.00,0.86
4210.00,0.86
4209.00,0.86
4208.00,0.86
4207.00,0.86
4206.00,0.86
4205.00,0.86
4204.00,0.86
4203.00,0.86
4202.00,0.86
4201.00,0.86
4200.00,0.86
4199.00,0.86
4198.00,0.87
4197.00,0.87
4196.00,0.87
4195.00,0.87
4194.00,0.87
4193.00,0.87
4192.00,0.87
4191.00,0.87
4190.00,0.87
4189.00,0.87
4188.00,0.87
4187.00,0.87
4186.00,0.87
4185.00,0.87
4184.00,0.87
4183.00,0.87
4182.00,0.87
4181.00,0.87
4180.00,0.87
4179.00,0.87
4178.00,0.87
4177.00,0.87
4176.00,0.87
4175.00,0.87
4174.00,0.87
4173.00,0.87
4172.00,0.87
4171.00,0.87
4170.00,0.87
4169.00,0.87
4168.00,0.87
4167.00,0.87
4166.00,0.87
4165.00,0.87
4164.00,0.88
4163.00,0.88
4162.00,0.88
4161.00,0.88
4160.00,0.88
4159.00,0.88
4158.00,0.88
4157.00,0.88
4156.00,0.88
4155.00,0.88
4154.00,0.88
4153.00,0.88
4152.00,0.88
4151.00,0.88
4150.00,0.88
4149.00,0.88
4148.00,0.88
4147.00,0.88
4146.00,0.88
4145.00,0.88
4144.00,0.88
4143.00,0.88
4142.00,0.88
4141.00,0.88
4140.00,0.88
4139.00,0.88
4138.00,0.88
4137.00,0.88
4136.00,0.88
4135.00,0.88
4134.00,0.88
4133.00,0.88
4132.00,0.88
4131.00,0.88
4130.00,0.88
4129.00,0.88
4128.00,0.88
4127.00,0.88
4126.00,0.88
4125.00,0.89
4124.00,0.89
4123.00,0.89
4122.00,0.89
4121.00,0.89
4120.00,0.89
4119.00,0.89
4118.00,0.90
4117.00,0.90
4116.00,0.90
4115.00,0.90
4114.00,0.90
4113.00,0.90
4112.00,0.90
4111.00,0.90
4110.00,0.90
4109.00,0.90
4108.00,0.90
4107.00,0.90
4106.00,0.90
4105.00,0.90
4104.00,0.90
4103.00,0.90
4102.00,0.90
4101.00,0.90
4100.00,0.90
4099.00,0.90
4098.00,0.90
4097.00,0.90
4096.00,0.90
4095.00,0.90
4094.00,0.90
4093.00,0.90
4092.00,0.90
4091.00,0.90
4090.00,0.90
4089.00,0.90
4088.00,0.89
4087.00,0.89
4086.00,0.89
4085.00,0.89
4084.00,0.89
4083.00,0.89
4082.00,0.89
4081.00,0.89
4080.00,0.89
4079.00,0.89
4078.00,0.89
4077.00,0.89
4076.00,0.89
4075.00,0.90
4074.00,0.90
4073.00,0.90
4072.00,0.90
4071.00,0.90
4070.00,0.90
4069.00,0.90
4068.00,0.90
4067.00,0.91
4066.00,0.91
4065.00,0.91
4064.00,0.91
4063.00,0.91
4062.00,0.91
4061.00,0.91
4060.00,0.91
4059.00,0.91
4058.00,0.92
4057.00,0.92
4056.00,0.92
4055.00,0.92
4054.00,0.92
4053.00,0.92
4052.00,0.92
4051.00,0.92
4050.00,0.92
4049.00,0.91
4048.00,0.91
4047.00,0.91
4046.00,0.91
4045.00,0.91
4044.00,0.91
4043.00,0.91
4042.00,0.91
4041.00,0.91
4040.00,0.91
4039.00,0.91
4038.00,0.92
4037.00,0.92
4036.00,0.92
4035.00,0.92
4034.00,0.92
4033.00,0.92
4032.00,0.92
4031.00,0.92
4030.00,0.92
4029.00,0.92
4028.00,0.92
4027.00,0.92
4026.00,0.92
4025.00,0.92
4024.00,0.92
4023.00,0.92
4022.00,0.92
4021.00,0.92
4020.00,0.92
4019.00,0.92
4018.00,0.92
4017.00,0.93
4016.00,0.93
4015.00,0.93
4014.00,0.93
4013.00,0.93
4012.00,0.93
4011.00,0.93
4010.00,0.93
4009.00,0.93
4008.00,0.93
4007.00,0.93
4006.00,0.93
4005.00,0.93
4004.00,0.93
4003.00,0.93
4002.00,0.93
4001.00,0.93
4000.00,0.93
