创建为新数据集,样品 691 用户 Administrator 日期 星期四, 七月 19 2018
cm-1,%T
10000.00,0.87
9999.00,0.87
9998.00,0.87
9997.00,0.87
9996.00,0.87
9995.00,0.87
9994.00,0.86
9993.00,0.86
9992.00,0.86
9991.00,0.86
9990.00,0.86
9989.00,0.86
9988.00,0.85
9987.00,0.85
9986.00,0.85
9985.00,0.85
9984.00,0.85
9983.00,0.84
9982.00,0.84
9981.00,0.84
9980.00,0.84
9979.00,0.84
9978.00,0.84
9977.00,0.84
9976.00,0.84
9975.00,0.84
9974.00,0.84
9973.00,0.84
9972.00,0.84
9971.00,0.84
9970.00,0.84
9969.00,0.84
9968.00,0.84
9967.00,0.84
9966.00,0.85
9965.00,0.85
9964.00,0.85
9963.00,0.85
9962.00,0.86
9961.00,0.86
9960.00,0.86
9959.00,0.86
9958.00,0.86
9957.00,0.87
9956.00,0.87
9955.00,0.87
9954.00,0.87
9953.00,0.87
9952.00,0.86
9951.00,0.86
9950.00,0.86
9949.00,0.86
9948.00,0.85
9947.00,0.85
9946.00,0.84
9945.00,0.84
9944.00,0.84
9943.00,0.83
9942.00,0.83
9941.00,0.83
9940.00,0.82
9939.00,0.82
9938.00,0.82
9937.00,0.82
9936.00,0.82
9935.00,0.82
9934.00,0.82
9933.00,0.82
9932.00,0.82
9931.00,0.82
9930.00,0.83
9929.00,0.83
9928.00,0.83
9927.00,0.83
9926.00,0.84
9925.00,0.84
9924.00,0.84
9923.00,0.84
9922.00,0.84
9921.00,0.84
9920.00,0.84
9919.00,0.85
9918.00,0.85
9917.00,0.85
9916.00,0.85
9915.00,0.85
9914.00,0.85
9913.00,0.85
9912.00,0.85
9911.00,0.85
9910.00,0.84
9909.00,0.84
9908.00,0.84
9907.00,0.84
9906.00,0.84
9905.00,0.84
9904.00,0.84
9903.00,0.84
9902.00,0.84
9901.00,0.84
9900.00,0.85
9899.00,0.85
9898.00,0.85
9897.00,0.85
9896.00,0.85
9895.00,0.86
9894.00,0.86
9893.00,0.86
9892.00,0.86
9891.00,0.86
9890.00,0.87
9889.00,0.87
9888.00,0.87
9887.00,0.87
9886.00,0.87
9885.00,0.87
9884.00,0.87
9883.00,0.86
9882.00,0.86
9881.00,0.86
9880.00,0.86
9879.00,0.85
9878.00,0.85
9877.00,0.85
9876.00,0.85
9875.00,0.85
9874.00,0.85
9873.00,0.84
9872.00,0.84
9871.00,0.84
9870.00,0.84
9869.00,0.85
9868.00,0.85
9867.00,0.85
9866.00,0.85
9865.00,0.85
9864.00,0.85
9863.00,0.85
9862.00,0.85
9861.00,0.85
9860.00,0.85
9859.00,0.85
9858.00,0.85
9857.00,0.85
9856.00,0.85
9855.00,0.85
9854.00,0.85
9853.00,0.85
9852.00,0.85
9851.00,0.85
9850.00,0.85
9849.00,0.85
9848.00,0.85
9847.00,0.86
9846.00,0.86
9845.00,0.86
9844.00,0.86
9843.00,0.86
9842.00,0.86
9841.00,0.86
9840.00,0.87
9839.00,0.87
9838.00,0.87
9837.00,0.87
9836.00,0.87
9835.00,0.87
9834.00,0.86
9833.00,0.86
9832.00,0.86
9831.00,0.86
9830.00,0.86
9829.00,0.86
9828.00,0.86
9827.00,0.86
9826.00,0.86
9825.00,0.86
9824.00,0.86
9823.00,0.86
9822.00,0.86
9821.00,0.86
9820.00,0.86
9819.00,0.86
9818.00,0.86
9817.00,0.86
9816.00,0.86
9815.00,0.86
9814.00,0.86
9813.00,0.86
9812.00,0.86
9811.00,0.86
9810.00,0.86
9809.00,0.86
9808.00,0.85
9807.00,0.85
9806.00,0.85
9805.00,0.85
9804.00,0.85
9803.00,0.85
9802.00,0.84
9801.00,0.84
9800.00,0.84
9799.00,0.84
9798.00,0.84
9797.00,0.84
9796.00,0.84
9795.00,0.84
9794.00,0.84
9793.00,0.84
9792.00,0.84
9791.00,0.84
9790.00,0.84
9789.00,0.84
9788.00,0.84
9787.00,0.84
9786.00,0.84
9785.00,0.84
9784.00,0.84
9783.00,0.84
9782.00,0.84
9781.00,0.84
9780.00,0.84
9779.00,0.84
9778.00,0.84
9777.00,0.84
9776.00,0.84
9775.00,0.84
9774.00,0.84
9773.00,0.84
9772.00,0.84
9771.00,0.84
9770.00,0.83
9769.00,0.83
9768.00,0.83
9767.00,0.83
9766.00,0.83
9765.00,0.83
9764.00,0.83
9763.00,0.83
9762.00,0.83
9761.00,0.82
9760.00,0.82
9759.00,0.82
9758.00,0.82
9757.00,0.82
9756.00,0.82
9755.00,0.82
9754.00,0.82
9753.00,0.82
9752.00,0.82
9751.00,0.82
9750.00,0.83
9749.00,0.83
9748.00,0.83
9747.00,0.83
9746.00,0.83
9745.00,0.83
9744.00,0.83
9743.00,0.84
9742.00,0.84
9741.00,0.84
9740.00,0.84
9739.00,0.84
9738.00,0.84
9737.00,0.84
9736.00,0.84
9735.00,0.85
9734.00,0.85
9733.00,0.85
9732.00,0.85
9731.00,0.85
9730.00,0.85
9729.00,0.85
9728.00,0.85
9727.00,0.86
9726.00,0.86
9725.00,0.86
9724.00,0.86
9723.00,0.86
9722.00,0.86
9721.00,0.86
9720.00,0.86
9719.00,0.86
9718.00,0.86
9717.00,0.86
9716.00,0.86
9715.00,0.86
9714.00,0.85
9713.00,0.85
9712.00,0.85
9711.00,0.84
9710.00,0.84
9709.00,0.84
9708.00,0.83
9707.00,0.83
9706.00,0.83
9705.00,0.82
9704.00,0.82
9703.00,0.82
9702.00,0.81
9701.00,0.81
9700.00,0.81
9699.00,0.81
9698.00,0.81
9697.00,0.81
9696.00,0.81
9695.00,0.81
9694.00,0.81
9693.00,0.81
9692.00,0.82
9691.00,0.82
9690.00,0.82
9689.00,0.82
9688.00,0.83
9687.00,0.83
9686.00,0.83
9685.00,0.83
9684.00,0.83
9683.00,0.84
9682.00,0.84
9681.00,0.84
9680.00,0.84
9679.00,0.84
9678.00,0.85
9677.00,0.85
9676.00,0.85
9675.00,0.85
9674.00,0.85
9673.00,0.85
9672.00,0.86
9671.00,0.86
9670.00,0.86
9669.00,0.86
9668.00,0.86
9667.00,0.86
9666.00,0.86
9665.00,0.85
9664.00,0.85
9663.00,0.85
9662.00,0.85
9661.00,0.85
9660.00,0.85
9659.00,0.85
9658.00,0.85
9657.00,0.85
9656.00,0.85
9655.00,0.85
9654.00,0.85
9653.00,0.85
9652.00,0.85
9651.00,0.85
9650.00,0.85
9649.00,0.85
9648.00,0.85
9647.00,0.85
9646.00,0.85
9645.00,0.85
9644.00,0.86
9643.00,0.86
9642.00,0.86
9641.00,0.86
9640.00,0.86
9639.00,0.86
9638.00,0.86
9637.00,0.85
9636.00,0.85
9635.00,0.85
9634.00,0.85
9633.00,0.85
9632.00,0.85
9631.00,0.85
9630.00,0.85
9629.00,0.85
9628.00,0.85
9627.00,0.85
9626.00,0.84
9625.00,0.84
9624.00,0.84
9623.00,0.84
9622.00,0.84
9621.00,0.84
9620.00,0.84
9619.00,0.84
9618.00,0.84
9617.00,0.84
9616.00,0.84
9615.00,0.84
9614.00,0.84
9613.00,0.84
9612.00,0.84
9611.00,0.84
9610.00,0.84
9609.00,0.85
9608.00,0.85
9607.00,0.85
9606.00,0.85
9605.00,0.85
9604.00,0.85
9603.00,0.85
9602.00,0.85
9601.00,0.86
9600.00,0.86
9599.00,0.86
9598.00,0.86
9597.00,0.85
9596.00,0.85
9595.00,0.85
9594.00,0.85
9593.00,0.85
9592.00,0.85
9591.00,0.85
9590.00,0.85
9589.00,0.85
9588.00,0.85
9587.00,0.85
9586.00,0.85
9585.00,0.85
9584.00,0.84
9583.00,0.84
9582.00,0.84
9581.00,0.84
9580.00,0.84
9579.00,0.84
9578.00,0.84
9577.00,0.84
9576.00,0.85
9575.00,0.85
9574.00,0.85
9573.00,0.85
9572.00,0.85
9571.00,0.85
9570.00,0.85
9569.00,0.85
9568.00,0.85
9567.00,0.85
9566.00,0.85
9565.00,0.85
9564.00,0.85
9563.00,0.85
9562.00,0.85
9561.00,0.85
9560.00,0.85
9559.00,0.85
9558.00,0.85
9557.00,0.85
9556.00,0.85
9555.00,0.85
9554.00,0.85
9553.00,0.85
9552.00,0.85
9551.00,0.85
9550.00,0.85
9549.00,0.85
9548.00,0.85
9547.00,0.85
9546.00,0.85
9545.00,0.85
9544.00,0.85
9543.00,0.86
9542.00,0.86
9541.00,0.86
9540.00,0.86
9539.00,0.86
9538.00,0.86
9537.00,0.86
9536.00,0.86
9535.00,0.86
9534.00,0.86
9533.00,0.86
9532.00,0.86
9531.00,0.86
9530.00,0.86
9529.00,0.86
9528.00,0.86
9527.00,0.86
9526.00,0.86
9525.00,0.85
9524.00,0.85
9523.00,0.85
9522.00,0.85
9521.00,0.85
9520.00,0.84
9519.00,0.84
9518.00,0.84
9517.00,0.84
9516.00,0.84
9515.00,0.84
9514.00,0.84
9513.00,0.83
9512.00,0.83
9511.00,0.83
9510.00,0.83
9509.00,0.84
9508.00,0.84
9507.00,0.84
9506.00,0.84
9505.00,0.84
9504.00,0.84
9503.00,0.84
9502.00,0.84
9501.00,0.84
9500.00,0.84
9499.00,0.84
9498.00,0.84
9497.00,0.84
9496.00,0.84
9495.00,0.84
9494.00,0.84
9493.00,0.84
9492.00,0.84
9491.00,0.84
9490.00,0.84
9489.00,0.84
9488.00,0.84
9487.00,0.84
9486.00,0.84
9485.00,0.84
9484.00,0.84
9483.00,0.85
9482.00,0.85
9481.00,0.85
9480.00,0.85
9479.00,0.85
9478.00,0.85
9477.00,0.85
9476.00,0.85
9475.00,0.85
9474.00,0.85
9473.00,0.85
9472.00,0.85
9471.00,0.85
9470.00,0.85
9469.00,0.85
9468.00,0.85
9467.00,0.85
9466.00,0.85
9465.00,0.85
9464.00,0.85
9463.00,0.85
9462.00,0.85
9461.00,0.85
9460.00,0.85
9459.00,0.85
9458.00,0.85
9457.00,0.84
9456.00,0.84
9455.00,0.84
9454.00,0.84
9453.00,0.84
9452.00,0.84
9451.00,0.84
9450.00,0.84
9449.00,0.84
9448.00,0.84
9447.00,0.84
9446.00,0.84
9445.00,0.84
9444.00,0.85
9443.00,0.85
9442.00,0.85
9441.00,0.85
9440.00,0.85
9439.00,0.85
9438.00,0.85
9437.00,0.85
9436.00,0.85
9435.00,0.85
9434.00,0.85
9433.00,0.85
9432.00,0.86
9431.00,0.86
9430.00,0.86
9429.00,0.86
9428.00,0.86
9427.00,0.86
9426.00,0.86
9425.00,0.86
9424.00,0.86
9423.00,0.86
9422.00,0.86
9421.00,0.86
9420.00,0.86
9419.00,0.86
9418.00,0.86
9417.00,0.86
9416.00,0.86
9415.00,0.86
9414.00,0.86
9413.00,0.86
9412.00,0.86
9411.00,0.86
9410.00,0.86
9409.00,0.86
9408.00,0.86
9407.00,0.86
9406.00,0.86
9405.00,0.86
9404.00,0.86
9403.00,0.86
9402.00,0.86
9401.00,0.86
9400.00,0.86
9399.00,0.86
9398.00,0.86
9397.00,0.86
9396.00,0.86
9395.00,0.86
9394.00,0.86
9393.00,0.85
9392.00,0.85
9391.00,0.85
9390.00,0.85
9389.00,0.85
9388.00,0.84
9387.00,0.84
9386.00,0.84
9385.00,0.84
9384.00,0.83
9383.00,0.83
9382.00,0.83
9381.00,0.83
9380.00,0.83
9379.00,0.83
9378.00,0.83
9377.00,0.83
9376.00,0.83
9375.00,0.83
9374.00,0.83
9373.00,0.83
9372.00,0.83
9371.00,0.83
9370.00,0.83
9369.00,0.83
9368.00,0.83
9367.00,0.83
9366.00,0.84
9365.00,0.84
9364.00,0.84
9363.00,0.84
9362.00,0.84
9361.00,0.84
9360.00,0.84
9359.00,0.84
9358.00,0.84
9357.00,0.84
9356.00,0.84
9355.00,0.85
9354.00,0.85
9353.00,0.85
9352.00,0.85
9351.00,0.85
9350.00,0.85
9349.00,0.85
9348.00,0.85
9347.00,0.85
9346.00,0.85
9345.00,0.85
9344.00,0.86
9343.00,0.86
9342.00,0.86
9341.00,0.86
9340.00,0.86
9339.00,0.86
9338.00,0.86
9337.00,0.86
9336.00,0.86
9335.00,0.86
9334.00,0.86
9333.00,0.86
9332.00,0.87
9331.00,0.87
9330.00,0.87
9329.00,0.87
9328.00,0.87
9327.00,0.87
9326.00,0.87
9325.00,0.87
9324.00,0.87
9323.00,0.87
9322.00,0.87
9321.00,0.87
9320.00,0.86
9319.00,0.86
9318.00,0.86
9317.00,0.86
9316.00,0.86
9315.00,0.86
9314.00,0.86
9313.00,0.86
9312.00,0.86
9311.00,0.85
9310.00,0.85
9309.00,0.85
9308.00,0.85
9307.00,0.85
9306.00,0.85
9305.00,0.85
9304.00,0.85
9303.00,0.85
9302.00,0.85
9301.00,0.85
9300.00,0.85
9299.00,0.85
9298.00,0.85
9297.00,0.85
9296.00,0.85
9295.00,0.85
9294.00,0.85
9293.00,0.85
9292.00,0.85
9291.00,0.85
9290.00,0.85
9289.00,0.85
9288.00,0.85
9287.00,0.85
9286.00,0.85
9285.00,0.85
9284.00,0.85
9283.00,0.86
9282.00,0.86
9281.00,0.86
9280.00,0.86
9279.00,0.86
9278.00,0.86
9277.00,0.86
9276.00,0.86
9275.00,0.85
9274.00,0.85
9273.00,0.85
9272.00,0.85
9271.00,0.85
9270.00,0.85
9269.00,0.85
9268.00,0.85
9267.00,0.84
9266.00,0.84
9265.00,0.84
9264.00,0.84
9263.00,0.84
9262.00,0.84
9261.00,0.84
9260.00,0.84
9259.00,0.84
9258.00,0.84
9257.00,0.84
9256.00,0.84
9255.00,0.84
9254.00,0.84
9253.00,0.84
9252.00,0.84
9251.00,0.84
9250.00,0.84
9249.00,0.85
9248.00,0.85
9247.00,0.85
9246.00,0.85
9245.00,0.85
9244.00,0.85
9243.00,0.85
9242.00,0.85
9241.00,0.86
9240.00,0.86
9239.00,0.86
9238.00,0.86
9237.00,0.86
9236.00,0.86
9235.00,0.86
9234.00,0.86
9233.00,0.86
9232.00,0.86
9231.00,0.86
9230.00,0.86
9229.00,0.86
9228.00,0.86
9227.00,0.85
9226.00,0.85
9225.00,0.85
9224.00,0.85
9223.00,0.85
9222.00,0.85
9221.00,0.85
9220.00,0.85
9219.00,0.85
9218.00,0.85
9217.00,0.85
9216.00,0.85
9215.00,0.86
9214.00,0.86
9213.00,0.86
9212.00,0.86
9211.00,0.86
9210.00,0.86
9209.00,0.86
9208.00,0.86
9207.00,0.86
9206.00,0.86
9205.00,0.86
9204.00,0.86
9203.00,0.86
9202.00,0.86
9201.00,0.86
9200.00,0.86
9199.00,0.86
9198.00,0.85
9197.00,0.85
9196.00,0.85
9195.00,0.85
9194.00,0.85
9193.00,0.85
9192.00,0.85
9191.00,0.85
9190.00,0.85
9189.00,0.85
9188.00,0.85
9187.00,0.85
9186.00,0.85
9185.00,0.85
9184.00,0.85
9183.00,0.85
9182.00,0.86
9181.00,0.86
9180.00,0.86
9179.00,0.86
9178.00,0.86
9177.00,0.86
9176.00,0.86
9175.00,0.86
9174.00,0.86
9173.00,0.86
9172.00,0.86
9171.00,0.86
9170.00,0.86
9169.00,0.86
9168.00,0.86
9167.00,0.85
9166.00,0.85
9165.00,0.85
9164.00,0.85
9163.00,0.85
9162.00,0.84
9161.00,0.84
9160.00,0.84
9159.00,0.84
9158.00,0.84
9157.00,0.84
9156.00,0.84
9155.00,0.84
9154.00,0.84
9153.00,0.84
9152.00,0.84
9151.00,0.85
9150.00,0.85
9149.00,0.85
9148.00,0.85
9147.00,0.85
9146.00,0.86
9145.00,0.86
9144.00,0.86
9143.00,0.86
9142.00,0.86
9141.00,0.87
9140.00,0.87
9139.00,0.87
9138.00,0.87
9137.00,0.87
9136.00,0.87
9135.00,0.87
9134.00,0.87
9133.00,0.87
9132.00,0.87
9131.00,0.87
9130.00,0.87
9129.00,0.87
9128.00,0.87
9127.00,0.87
9126.00,0.86
9125.00,0.86
9124.00,0.86
9123.00,0.86
9122.00,0.86
9121.00,0.85
9120.00,0.85
9119.00,0.85
9118.00,0.85
9117.00,0.84
9116.00,0.84
9115.00,0.84
9114.00,0.84
9113.00,0.84
9112.00,0.84
9111.00,0.84
9110.00,0.84
9109.00,0.84
9108.00,0.84
9107.00,0.84
9106.00,0.84
9105.00,0.84
9104.00,0.84
9103.00,0.84
9102.00,0.84
9101.00,0.84
9100.00,0.85
9099.00,0.85
9098.00,0.85
9097.00,0.85
9096.00,0.85
9095.00,0.85
9094.00,0.85
9093.00,0.85
9092.00,0.85
9091.00,0.85
9090.00,0.85
9089.00,0.86
9088.00,0.86
9087.00,0.86
9086.00,0.86
9085.00,0.86
9084.00,0.86
9083.00,0.86
9082.00,0.86
9081.00,0.86
9080.00,0.86
9079.00,0.86
9078.00,0.86
9077.00,0.86
9076.00,0.86
9075.00,0.86
9074.00,0.86
9073.00,0.86
9072.00,0.86
9071.00,0.86
9070.00,0.86
9069.00,0.86
9068.00,0.86
9067.00,0.86
9066.00,0.86
9065.00,0.86
9064.00,0.86
9063.00,0.86
9062.00,0.86
9061.00,0.86
9060.00,0.86
9059.00,0.86
9058.00,0.86
9057.00,0.86
9056.00,0.86
9055.00,0.86
9054.00,0.86
9053.00,0.86
9052.00,0.86
9051.00,0.86
9050.00,0.86
9049.00,0.86
9048.00,0.86
9047.00,0.86
9046.00,0.86
9045.00,0.86
9044.00,0.86
9043.00,0.86
9042.00,0.86
9041.00,0.85
9040.00,0.85
9039.00,0.85
9038.00,0.85
9037.00,0.85
9036.00,0.85
9035.00,0.85
9034.00,0.85
9033.00,0.85
9032.00,0.85
9031.00,0.85
9030.00,0.85
9029.00,0.85
9028.00,0.85
9027.00,0.85
9026.00,0.85
9025.00,0.85
9024.00,0.85
9023.00,0.86
9022.00,0.86
9021.00,0.86
9020.00,0.86
9019.00,0.86
9018.00,0.86
9017.00,0.86
9016.00,0.86
9015.00,0.86
9014.00,0.86
9013.00,0.86
9012.00,0.86
9011.00,0.86
9010.00,0.86
9009.00,0.86
9008.00,0.86
9007.00,0.86
9006.00,0.86
9005.00,0.87
9004.00,0.87
9003.00,0.87
9002.00,0.87
9001.00,0.87
9000.00,0.87
8999.00,0.87
8998.00,0.87
8997.00,0.87
8996.00,0.87
8995.00,0.87
8994.00,0.87
8993.00,0.87
8992.00,0.87
8991.00,0.87
8990.00,0.87
8989.00,0.87
8988.00,0.87
8987.00,0.87
8986.00,0.87
8985.00,0.87
8984.00,0.87
8983.00,0.87
8982.00,0.87
8981.00,0.87
8980.00,0.87
8979.00,0.87
8978.00,0.87
8977.00,0.87
8976.00,0.87
8975.00,0.87
8974.00,0.87
8973.00,0.87
8972.00,0.86
8971.00,0.86
8970.00,0.86
8969.00,0.86
8968.00,0.86
8967.00,0.86
8966.00,0.86
8965.00,0.86
8964.00,0.86
8963.00,0.86
8962.00,0.85
8961.00,0.85
8960.00,0.85
8959.00,0.85
8958.00,0.85
8957.00,0.85
8956.00,0.85
8955.00,0.85
8954.00,0.85
8953.00,0.85
8952.00,0.85
8951.00,0.85
8950.00,0.85
8949.00,0.85
8948.00,0.85
8947.00,0.85
8946.00,0.86
8945.00,0.86
8944.00,0.86
8943.00,0.86
8942.00,0.86
8941.00,0.86
8940.00,0.86
8939.00,0.86
8938.00,0.86
8937.00,0.86
8936.00,0.86
8935.00,0.86
8934.00,0.86
8933.00,0.86
8932.00,0.87
8931.00,0.87
8930.00,0.87
8929.00,0.87
8928.00,0.87
8927.00,0.87
8926.00,0.87
8925.00,0.87
8924.00,0.87
8923.00,0.87
8922.00,0.87
8921.00,0.87
8920.00,0.87
8919.00,0.87
8918.00,0.87
8917.00,0.87
8916.00,0.87
8915.00,0.87
8914.00,0.87
8913.00,0.87
8912.00,0.87
8911.00,0.87
8910.00,0.87
8909.00,0.87
8908.00,0.87
8907.00,0.86
8906.00,0.86
8905.00,0.86
8904.00,0.86
8903.00,0.86
8902.00,0.86
8901.00,0.86
8900.00,0.86
8899.00,0.86
8898.00,0.86
8897.00,0.86
8896.00,0.86
8895.00,0.86
8894.00,0.86
8893.00,0.86
8892.00,0.86
8891.00,0.86
8890.00,0.86
8889.00,0.86
8888.00,0.86
8887.00,0.86
8886.00,0.86
8885.00,0.86
8884.00,0.86
8883.00,0.86
8882.00,0.86
8881.00,0.86
8880.00,0.86
8879.00,0.86
8878.00,0.86
8877.00,0.86
8876.00,0.86
8875.00,0.86
8874.00,0.86
8873.00,0.86
8872.00,0.86
8871.00,0.86
8870.00,0.86
8869.00,0.86
8868.00,0.86
8867.00,0.86
8866.00,0.86
8865.00,0.86
8864.00,0.86
8863.00,0.86
8862.00,0.86
8861.00,0.86
8860.00,0.86
8859.00,0.86
8858.00,0.86
8857.00,0.86
8856.00,0.86
8855.00,0.86
8854.00,0.86
8853.00,0.85
8852.00,0.85
8851.00,0.85
8850.00,0.85
8849.00,0.85
8848.00,0.85
8847.00,0.85
8846.00,0.85
8845.00,0.85
8844.00,0.85
8843.00,0.85
8842.00,0.85
8841.00,0.85
8840.00,0.85
8839.00,0.86
8838.00,0.86
8837.00,0.86
8836.00,0.86
8835.00,0.86
8834.00,0.86
8833.00,0.86
8832.00,0.86
8831.00,0.85
8830.00,0.85
8829.00,0.85
8828.00,0.85
8827.00,0.85
8826.00,0.85
8825.00,0.85
8824.00,0.85
8823.00,0.85
8822.00,0.84
8821.00,0.84
8820.00,0.84
8819.00,0.84
8818.00,0.84
8817.00,0.84
8816.00,0.84
8815.00,0.84
8814.00,0.84
8813.00,0.85
8812.00,0.85
8811.00,0.85
8810.00,0.85
8809.00,0.85
8808.00,0.85
8807.00,0.85
8806.00,0.85
8805.00,0.85
8804.00,0.85
8803.00,0.85
8802.00,0.85
8801.00,0.85
8800.00,0.85
8799.00,0.85
8798.00,0.84
8797.00,0.84
8796.00,0.84
8795.00,0.84
8794.00,0.84
8793.00,0.84
8792.00,0.84
8791.00,0.84
8790.00,0.84
8789.00,0.84
8788.00,0.84
8787.00,0.84
8786.00,0.84
8785.00,0.84
8784.00,0.84
8783.00,0.84
8782.00,0.84
8781.00,0.84
8780.00,0.84
8779.00,0.84
8778.00,0.84
8777.00,0.84
8776.00,0.84
8775.00,0.84
8774.00,0.84
8773.00,0.84
8772.00,0.84
8771.00,0.84
8770.00,0.84
8769.00,0.84
8768.00,0.84
8767.00,0.84
8766.00,0.84
8765.00,0.84
8764.00,0.84
8763.00,0.84
8762.00,0.84
8761.00,0.84
8760.00,0.84
8759.00,0.84
8758.00,0.84
8757.00,0.84
8756.00,0.84
8755.00,0.84
8754.00,0.84
8753.00,0.84
8752.00,0.84
8751.00,0.83
8750.00,0.83
8749.00,0.83
8748.00,0.83
8747.00,0.83
8746.00,0.83
8745.00,0.83
8744.00,0.83
8743.00,0.82
8742.00,0.82
8741.00,0.82
8740.00,0.82
8739.00,0.82
8738.00,0.82
8737.00,0.82
8736.00,0.82
8735.00,0.82
8734.00,0.82
8733.00,0.82
8732.00,0.82
8731.00,0.82
8730.00,0.82
8729.00,0.82
8728.00,0.82
8727.00,0.82
8726.00,0.82
8725.00,0.82
8724.00,0.82
8723.00,0.82
8722.00,0.82
8721.00,0.82
8720.00,0.82
8719.00,0.82
8718.00,0.82
8717.00,0.82
8716.00,0.82
8715.00,0.82
8714.00,0.82
8713.00,0.82
8712.00,0.82
8711.00,0.82
8710.00,0.82
8709.00,0.82
8708.00,0.82
8707.00,0.82
8706.00,0.82
8705.00,0.82
8704.00,0.82
8703.00,0.82
8702.00,0.82
8701.00,0.82
8700.00,0.82
8699.00,0.82
8698.00,0.82
8697.00,0.81
8696.00,0.81
8695.00,0.81
8694.00,0.81
8693.00,0.81
8692.00,0.81
8691.00,0.81
8690.00,0.81
8689.00,0.81
8688.00,0.81
8687.00,0.81
8686.00,0.81
8685.00,0.81
8684.00,0.81
8683.00,0.81
8682.00,0.81
8681.00,0.81
8680.00,0.81
8679.00,0.81
8678.00,0.81
8677.00,0.81
8676.00,0.81
8675.00,0.81
8674.00,0.81
8673.00,0.81
8672.00,0.81
8671.00,0.81
8670.00,0.81
8669.00,0.81
8668.00,0.81
8667.00,0.81
8666.00,0.81
8665.00,0.81
8664.00,0.81
8663.00,0.81
8662.00,0.81
8661.00,0.81
8660.00,0.81
8659.00,0.81
8658.00,0.81
8657.00,0.81
8656.00,0.81
8655.00,0.82
8654.00,0.82
8653.00,0.82
8652.00,0.82
8651.00,0.82
8650.00,0.82
8649.00,0.82
8648.00,0.82
8647.00,0.82
8646.00,0.82
8645.00,0.82
8644.00,0.83
8643.00,0.83
8642.00,0.83
8641.00,0.83
8640.00,0.83
8639.00,0.83
8638.00,0.83
8637.00,0.83
8636.00,0.83
8635.00,0.83
8634.00,0.83
8633.00,0.83
8632.00,0.83
8631.00,0.83
8630.00,0.83
8629.00,0.82
8628.00,0.82
8627.00,0.82
8626.00,0.82
8625.00,0.82
8624.00,0.82
8623.00,0.82
8622.00,0.82
8621.00,0.82
8620.00,0.82
8619.00,0.82
8618.00,0.82
8617.00,0.81
8616.00,0.81
8615.00,0.81
8614.00,0.81
8613.00,0.81
8612.00,0.81
8611.00,0.81
8610.00,0.81
8609.00,0.81
8608.00,0.81
8607.00,0.81
8606.00,0.81
8605.00,0.81
8604.00,0.81
8603.00,0.80
8602.00,0.80
8601.00,0.80
8600.00,0.80
8599.00,0.80
8598.00,0.80
8597.00,0.80
8596.00,0.80
8595.00,0.80
8594.00,0.80
8593.00,0.80
8592.00,0.80
8591.00,0.80
8590.00,0.80
8589.00,0.80
8588.00,0.80
8587.00,0.80
8586.00,0.80
8585.00,0.80
8584.00,0.80
8583.00,0.80
8582.00,0.80
8581.00,0.80
8580.00,0.80
8579.00,0.80
8578.00,0.80
8577.00,0.80
8576.00,0.80
8575.00,0.80
8574.00,0.80
8573.00,0.80
8572.00,0.80
8571.00,0.80
8570.00,0.79
8569.00,0.79
8568.00,0.79
8567.00,0.79
8566.00,0.79
8565.00,0.79
8564.00,0.79
8563.00,0.79
8562.00,0.79
8561.00,0.78
8560.00,0.78
8559.00,0.78
8558.00,0.78
8557.00,0.78
8556.00,0.78
8555.00,0.78
8554.00,0.78
8553.00,0.78
8552.00,0.78
8551.00,0.78
8550.00,0.78
8549.00,0.78
8548.00,0.79
8547.00,0.79
8546.00,0.79
8545.00,0.79
8544.00,0.79
8543.00,0.79
8542.00,0.79
8541.00,0.79
8540.00,0.79
8539.00,0.79
8538.00,0.79
8537.00,0.79
8536.00,0.79
8535.00,0.79
8534.00,0.79
8533.00,0.79
8532.00,0.79
8531.00,0.79
8530.00,0.79
8529.00,0.79
8528.00,0.79
8527.00,0.79
8526.00,0.79
8525.00,0.79
8524.00,0.79
8523.00,0.79
8522.00,0.79
8521.00,0.79
8520.00,0.79
8519.00,0.79
8518.00,0.79
8517.00,0.79
8516.00,0.79
8515.00,0.79
8514.00,0.79
8513.00,0.79
8512.00,0.78
8511.00,0.78
8510.00,0.78
8509.00,0.78
8508.00,0.78
8507.00,0.78
8506.00,0.78
8505.00,0.78
8504.00,0.78
8503.00,0.78
8502.00,0.78
8501.00,0.78
8500.00,0.78
8499.00,0.78
8498.00,0.78
8497.00,0.78
8496.00,0.78
8495.00,0.78
8494.00,0.78
8493.00,0.78
8492.00,0.78
8491.00,0.78
8490.00,0.78
8489.00,0.78
8488.00,0.78
8487.00,0.78
8486.00,0.78
8485.00,0.78
8484.00,0.78
8483.00,0.78
8482.00,0.78
8481.00,0.78
8480.00,0.78
8479.00,0.78
8478.00,0.78
8477.00,0.78
8476.00,0.78
8475.00,0.78
8474.00,0.78
8473.00,0.78
8472.00,0.78
8471.00,0.77
8470.00,0.77
8469.00,0.77
8468.00,0.77
8467.00,0.77
8466.00,0.77
8465.00,0.77
8464.00,0.77
8463.00,0.77
8462.00,0.76
8461.00,0.76
8460.00,0.76
8459.00,0.76
8458.00,0.76
8457.00,0.76
8456.00,0.76
8455.00,0.76
8454.00,0.76
8453.00,0.76
8452.00,0.76
8451.00,0.76
8450.00,0.76
8449.00,0.76
8448.00,0.76
8447.00,0.76
8446.00,0.76
8445.00,0.76
8444.00,0.76
8443.00,0.76
8442.00,0.76
8441.00,0.76
8440.00,0.76
8439.00,0.76
8438.00,0.76
8437.00,0.76
8436.00,0.76
8435.00,0.76
8434.00,0.75
8433.00,0.75
8432.00,0.75
8431.00,0.75
8430.00,0.76
8429.00,0.76
8428.00,0.76
8427.00,0.76
8426.00,0.76
8425.00,0.76
8424.00,0.76
8423.00,0.76
8422.00,0.76
8421.00,0.76
8420.00,0.76
8419.00,0.76
8418.00,0.76
8417.00,0.76
8416.00,0.76
8415.00,0.77
8414.00,0.77
8413.00,0.77
8412.00,0.77
8411.00,0.77
8410.00,0.77
8409.00,0.78
8408.00,0.78
8407.00,0.78
8406.00,0.78
8405.00,0.78
8404.00,0.78
8403.00,0.78
8402.00,0.78
8401.00,0.78
8400.00,0.78
8399.00,0.78
8398.00,0.78
8397.00,0.78
8396.00,0.78
8395.00,0.78
8394.00,0.78
8393.00,0.78
8392.00,0.78
8391.00,0.78
8390.00,0.78
8389.00,0.77
8388.00,0.77
8387.00,0.77
8386.00,0.77
8385.00,0.77
8384.00,0.77
8383.00,0.77
8382.00,0.77
8381.00,0.77
8380.00,0.77
8379.00,0.77
8378.00,0.77
8377.00,0.77
8376.00,0.77
8375.00,0.77
8374.00,0.77
8373.00,0.77
8372.00,0.77
8371.00,0.77
8370.00,0.77
8369.00,0.78
8368.00,0.78
8367.00,0.78
8366.00,0.78
8365.00,0.78
8364.00,0.78
8363.00,0.78
8362.00,0.78
8361.00,0.78
8360.00,0.79
8359.00,0.79
8358.00,0.79
8357.00,0.79
8356.00,0.79
8355.00,0.79
8354.00,0.79
8353.00,0.79
8352.00,0.79
8351.00,0.79
8350.00,0.79
8349.00,0.78
8348.00,0.78
8347.00,0.78
8346.00,0.78
8345.00,0.78
8344.00,0.78
8343.00,0.78
8342.00,0.78
8341.00,0.78
8340.00,0.78
8339.00,0.78
8338.00,0.78
8337.00,0.78
8336.00,0.78
8335.00,0.78
8334.00,0.78
8333.00,0.78
8332.00,0.78
8331.00,0.79
8330.00,0.79
8329.00,0.79
8328.00,0.79
8327.00,0.79
8326.00,0.79
8325.00,0.79
8324.00,0.79
8323.00,0.79
8322.00,0.79
8321.00,0.79
8320.00,0.79
8319.00,0.79
8318.00,0.79
8317.00,0.79
8316.00,0.79
8315.00,0.79
8314.00,0.79
8313.00,0.79
8312.00,0.79
8311.00,0.79
8310.00,0.79
8309.00,0.79
8308.00,0.79
8307.00,0.79
8306.00,0.79
8305.00,0.78
8304.00,0.78
8303.00,0.78
8302.00,0.78
8301.00,0.78
8300.00,0.78
8299.00,0.78
8298.00,0.78
8297.00,0.78
8296.00,0.78
8295.00,0.78
8294.00,0.78
8293.00,0.78
8292.00,0.78
8291.00,0.78
8290.00,0.78
8289.00,0.78
8288.00,0.79
8287.00,0.79
8286.00,0.79
8285.00,0.79
8284.00,0.79
8283.00,0.79
8282.00,0.79
8281.00,0.79
8280.00,0.80
8279.00,0.80
8278.00,0.80
8277.00,0.80
8276.00,0.80
8275.00,0.80
8274.00,0.80
8273.00,0.80
8272.00,0.80
8271.00,0.80
8270.00,0.80
8269.00,0.80
8268.00,0.80
8267.00,0.80
8266.00,0.80
8265.00,0.80
8264.00,0.80
8263.00,0.80
8262.00,0.80
8261.00,0.80
8260.00,0.80
8259.00,0.80
8258.00,0.80
8257.00,0.80
8256.00,0.80
8255.00,0.80
8254.00,0.80
8253.00,0.80
8252.00,0.80
8251.00,0.80
8250.00,0.80
8249.00,0.80
8248.00,0.80
8247.00,0.80
8246.00,0.80
8245.00,0.80
8244.00,0.80
8243.00,0.80
8242.00,0.80
8241.00,0.81
8240.00,0.81
8239.00,0.81
8238.00,0.81
8237.00,0.81
8236.00,0.81
8235.00,0.81
8234.00,0.81
8233.00,0.81
8232.00,0.81
8231.00,0.81
8230.00,0.81
8229.00,0.81
8228.00,0.81
8227.00,0.81
8226.00,0.81
8225.00,0.80
8224.00,0.80
8223.00,0.80
8222.00,0.80
8221.00,0.80
8220.00,0.80
8219.00,0.80
8218.00,0.80
8217.00,0.80
8216.00,0.80
8215.00,0.80
8214.00,0.80
8213.00,0.80
8212.00,0.81
8211.00,0.81
8210.00,0.81
8209.00,0.81
8208.00,0.81
8207.00,0.81
8206.00,0.81
8205.00,0.81
8204.00,0.81
8203.00,0.81
8202.00,0.81
8201.00,0.81
8200.00,0.81
8199.00,0.81
8198.00,0.81
8197.00,0.81
8196.00,0.81
8195.00,0.81
8194.00,0.81
8193.00,0.81
8192.00,0.81
8191.00,0.81
8190.00,0.81
8189.00,0.81
8188.00,0.81
8187.00,0.81
8186.00,0.82
8185.00,0.82
8184.00,0.82
8183.00,0.82
8182.00,0.82
8181.00,0.82
8180.00,0.82
8179.00,0.82
8178.00,0.82
8177.00,0.82
8176.00,0.82
8175.00,0.82
8174.00,0.82
8173.00,0.82
8172.00,0.82
8171.00,0.82
8170.00,0.82
8169.00,0.82
8168.00,0.82
8167.00,0.82
8166.00,0.82
8165.00,0.81
8164.00,0.81
8163.00,0.81
8162.00,0.81
8161.00,0.81
8160.00,0.81
8159.00,0.81
8158.00,0.81
8157.00,0.81
8156.00,0.81
8155.00,0.81
8154.00,0.81
8153.00,0.81
8152.00,0.81
8151.00,0.81
8150.00,0.81
8149.00,0.81
8148.00,0.81
8147.00,0.81
8146.00,0.81
8145.00,0.81
8144.00,0.81
8143.00,0.81
8142.00,0.81
8141.00,0.81
8140.00,0.81
8139.00,0.81
8138.00,0.81
8137.00,0.81
8136.00,0.81
8135.00,0.81
8134.00,0.82
8133.00,0.82
8132.00,0.82
8131.00,0.82
8130.00,0.82
8129.00,0.82
8128.00,0.82
8127.00,0.82
8126.00,0.82
8125.00,0.82
8124.00,0.83
8123.00,0.83
8122.00,0.83
8121.00,0.83
8120.00,0.83
8119.00,0.83
8118.00,0.83
8117.00,0.83
8116.00,0.83
8115.00,0.83
8114.00,0.83
8113.00,0.82
8112.00,0.82
8111.00,0.82
8110.00,0.82
8109.00,0.82
8108.00,0.82
8107.00,0.82
8106.00,0.82
8105.00,0.82
8104.00,0.82
8103.00,0.82
8102.00,0.82
8101.00,0.82
8100.00,0.82
8099.00,0.82
8098.00,0.82
8097.00,0.82
8096.00,0.82
8095.00,0.82
8094.00,0.82
8093.00,0.82
8092.00,0.82
8091.00,0.82
8090.00,0.82
8089.00,0.82
8088.00,0.82
8087.00,0.82
8086.00,0.82
8085.00,0.82
8084.00,0.82
8083.00,0.82
8082.00,0.82
8081.00,0.82
8080.00,0.82
8079.00,0.82
8078.00,0.82
8077.00,0.83
8076.00,0.83
8075.00,0.83
8074.00,0.83
8073.00,0.83
8072.00,0.83
8071.00,0.83
8070.00,0.83
8069.00,0.83
8068.00,0.83
8067.00,0.83
8066.00,0.83
8065.00,0.83
8064.00,0.83
8063.00,0.83
8062.00,0.83
8061.00,0.83
8060.00,0.83
8059.00,0.83
8058.00,0.83
8057.00,0.83
8056.00,0.83
8055.00,0.83
8054.00,0.83
8053.00,0.83
8052.00,0.83
8051.00,0.83
8050.00,0.83
8049.00,0.83
8048.00,0.83
8047.00,0.83
8046.00,0.83
8045.00,0.83
8044.00,0.83
8043.00,0.83
8042.00,0.83
8041.00,0.83
8040.00,0.83
8039.00,0.83
8038.00,0.83
8037.00,0.83
8036.00,0.83
8035.00,0.83
8034.00,0.83
8033.00,0.83
8032.00,0.83
8031.00,0.84
8030.00,0.84
8029.00,0.84
8028.00,0.84
8027.00,0.84
8026.00,0.84
8025.00,0.84
8024.00,0.84
8023.00,0.84
8022.00,0.84
8021.00,0.84
8020.00,0.84
8019.00,0.84
8018.00,0.84
8017.00,0.84
8016.00,0.84
8015.00,0.84
8014.00,0.84
8013.00,0.84
8012.00,0.84
8011.00,0.84
8010.00,0.84
8009.00,0.84
8008.00,0.84
8007.00,0.84
8006.00,0.84
8005.00,0.84
8004.00,0.84
8003.00,0.84
8002.00,0.84
8001.00,0.84
8000.00,0.84
7999.00,0.84
7998.00,0.84
7997.00,0.84
7996.00,0.84
7995.00,0.84
7994.00,0.84
7993.00,0.84
7992.00,0.83
7991.00,0.83
7990.00,0.83
7989.00,0.83
7988.00,0.83
7987.00,0.83
7986.00,0.83
7985.00,0.83
7984.00,0.83
7983.00,0.83
7982.00,0.83
7981.00,0.83
7980.00,0.82
7979.00,0.82
7978.00,0.82
7977.00,0.82
7976.00,0.82
7975.00,0.82
7974.00,0.82
7973.00,0.82
7972.00,0.82
7971.00,0.82
7970.00,0.83
7969.00,0.83
7968.00,0.83
7967.00,0.83
7966.00,0.83
7965.00,0.83
7964.00,0.83
7963.00,0.84
7962.00,0.84
7961.00,0.84
7960.00,0.84
7959.00,0.84
7958.00,0.84
7957.00,0.84
7956.00,0.84
7955.00,0.85
7954.00,0.85
7953.00,0.85
7952.00,0.85
7951.00,0.85
7950.00,0.85
7949.00,0.85
7948.00,0.84
7947.00,0.84
7946.00,0.84
7945.00,0.84
7944.00,0.84
7943.00,0.84
7942.00,0.84
7941.00,0.84
7940.00,0.84
7939.00,0.84
7938.00,0.84
7937.00,0.83
7936.00,0.83
7935.00,0.83
7934.00,0.83
7933.00,0.83
7932.00,0.83
7931.00,0.83
7930.00,0.83
7929.00,0.83
7928.00,0.83
7927.00,0.83
7926.00,0.83
7925.00,0.84
7924.00,0.84
7923.00,0.84
7922.00,0.84
7921.00,0.84
7920.00,0.84
7919.00,0.84
7918.00,0.84
7917.00,0.84
7916.00,0.84
7915.00,0.84
7914.00,0.84
7913.00,0.84
7912.00,0.84
7911.00,0.84
7910.00,0.84
7909.00,0.84
7908.00,0.84
7907.00,0.84
7906.00,0.84
7905.00,0.85
7904.00,0.85
7903.00,0.85
7902.00,0.85
7901.00,0.85
7900.00,0.85
7899.00,0.85
7898.00,0.85
7897.00,0.85
7896.00,0.85
7895.00,0.85
7894.00,0.85
7893.00,0.85
7892.00,0.85
7891.00,0.85
7890.00,0.85
7889.00,0.85
7888.00,0.85
7887.00,0.85
7886.00,0.85
7885.00,0.85
7884.00,0.85
7883.00,0.85
7882.00,0.85
7881.00,0.85
7880.00,0.85
7879.00,0.85
7878.00,0.85
7877.00,0.85
7876.00,0.85
7875.00,0.85
7874.00,0.85
7873.00,0.85
7872.00,0.85
7871.00,0.85
7870.00,0.85
7869.00,0.85
7868.00,0.85
7867.00,0.85
7866.00,0.85
7865.00,0.85
7864.00,0.85
7863.00,0.85
7862.00,0.85
7861.00,0.85
7860.00,0.85
7859.00,0.85
7858.00,0.85
7857.00,0.85
7856.00,0.85
7855.00,0.85
7854.00,0.85
7853.00,0.85
7852.00,0.85
7851.00,0.85
7850.00,0.85
7849.00,0.85
7848.00,0.85
7847.00,0.85
7846.00,0.86
7845.00,0.86
7844.00,0.86
7843.00,0.86
7842.00,0.86
7841.00,0.86
7840.00,0.86
7839.00,0.86
7838.00,0.86
7837.00,0.86
7836.00,0.86
7835.00,0.86
7834.00,0.85
7833.00,0.85
7832.00,0.85
7831.00,0.85
7830.00,0.85
7829.00,0.85
7828.00,0.85
7827.00,0.85
7826.00,0.85
7825.00,0.85
7824.00,0.85
7823.00,0.85
7822.00,0.85
7821.00,0.85
7820.00,0.85
7819.00,0.85
7818.00,0.85
7817.00,0.85
7816.00,0.85
7815.00,0.85
7814.00,0.85
7813.00,0.85
7812.00,0.85
7811.00,0.85
7810.00,0.85
7809.00,0.85
7808.00,0.85
7807.00,0.85
7806.00,0.85
7805.00,0.85
7804.00,0.85
7803.00,0.85
7802.00,0.85
7801.00,0.85
7800.00,0.85
7799.00,0.85
7798.00,0.85
7797.00,0.85
7796.00,0.85
7795.00,0.85
7794.00,0.85
7793.00,0.85
7792.00,0.86
7791.00,0.86
7790.00,0.86
7789.00,0.86
7788.00,0.86
7787.00,0.86
7786.00,0.86
7785.00,0.86
7784.00,0.86
7783.00,0.86
7782.00,0.86
7781.00,0.86
7780.00,0.86
7779.00,0.86
7778.00,0.86
7777.00,0.86
7776.00,0.86
7775.00,0.86
7774.00,0.86
7773.00,0.86
7772.00,0.86
7771.00,0.86
7770.00,0.86
7769.00,0.86
7768.00,0.86
7767.00,0.86
7766.00,0.86
7765.00,0.86
7764.00,0.86
7763.00,0.87
7762.00,0.87
7761.00,0.87
7760.00,0.87
7759.00,0.87
7758.00,0.87
7757.00,0.87
7756.00,0.87
7755.00,0.87
7754.00,0.87
7753.00,0.87
7752.00,0.87
7751.00,0.87
7750.00,0.87
7749.00,0.87
7748.00,0.87
7747.00,0.87
7746.00,0.87
7745.00,0.86
7744.00,0.86
7743.00,0.86
7742.00,0.86
7741.00,0.86
7740.00,0.86
7739.00,0.86
7738.00,0.86
7737.00,0.86
7736.00,0.86
7735.00,0.86
7734.00,0.86
7733.00,0.86
7732.00,0.86
7731.00,0.86
7730.00,0.86
7729.00,0.86
7728.00,0.86
7727.00,0.86
7726.00,0.86
7725.00,0.86
7724.00,0.86
7723.00,0.86
7722.00,0.86
7721.00,0.86
7720.00,0.86
7719.00,0.86
7718.00,0.86
7717.00,0.86
7716.00,0.86
7715.00,0.86
7714.00,0.86
7713.00,0.86
7712.00,0.86
7711.00,0.86
7710.00,0.86
7709.00,0.86
7708.00,0.86
7707.00,0.86
7706.00,0.86
7705.00,0.86
7704.00,0.86
7703.00,0.86
7702.00,0.86
7701.00,0.86
7700.00,0.86
7699.00,0.86
7698.00,0.86
7697.00,0.86
7696.00,0.86
7695.00,0.86
7694.00,0.86
7693.00,0.86
7692.00,0.86
7691.00,0.86
7690.00,0.86
7689.00,0.86
7688.00,0.86
7687.00,0.86
7686.00,0.86
7685.00,0.86
7684.00,0.86
7683.00,0.86
7682.00,0.86
7681.00,0.86
7680.00,0.86
7679.00,0.86
7678.00,0.86
7677.00,0.86
7676.00,0.86
7675.00,0.86
7674.00,0.86
7673.00,0.86
7672.00,0.86
7671.00,0.87
7670.00,0.87
7669.00,0.87
7668.00,0.87
7667.00,0.87
7666.00,0.87
7665.00,0.87
7664.00,0.87
7663.00,0.87
7662.00,0.87
7661.00,0.87
7660.00,0.87
7659.00,0.86
7658.00,0.86
7657.00,0.86
7656.00,0.86
7655.00,0.86
7654.00,0.86
7653.00,0.87
7652.00,0.87
7651.00,0.87
7650.00,0.87
7649.00,0.87
7648.00,0.87
7647.00,0.87
7646.00,0.87
7645.00,0.87
7644.00,0.87
7643.00,0.87
7642.00,0.87
7641.00,0.87
7640.00,0.87
7639.00,0.87
7638.00,0.87
7637.00,0.87
7636.00,0.87
7635.00,0.86
7634.00,0.86
7633.00,0.86
7632.00,0.86
7631.00,0.86
7630.00,0.86
7629.00,0.86
7628.00,0.86
7627.00,0.86
7626.00,0.86
7625.00,0.86
7624.00,0.86
7623.00,0.86
7622.00,0.86
7621.00,0.86
7620.00,0.86
7619.00,0.86
7618.00,0.86
7617.00,0.86
7616.00,0.86
7615.00,0.86
7614.00,0.86
7613.00,0.86
7612.00,0.86
7611.00,0.86
7610.00,0.86
7609.00,0.86
7608.00,0.86
7607.00,0.86
7606.00,0.86
7605.00,0.86
7604.00,0.86
7603.00,0.86
7602.00,0.86
7601.00,0.86
7600.00,0.86
7599.00,0.86
7598.00,0.86
7597.00,0.86
7596.00,0.86
7595.00,0.86
7594.00,0.86
7593.00,0.86
7592.00,0.86
7591.00,0.86
7590.00,0.86
7589.00,0.86
7588.00,0.86
7587.00,0.86
7586.00,0.86
7585.00,0.86
7584.00,0.86
7583.00,0.86
7582.00,0.86
7581.00,0.87
7580.00,0.87
7579.00,0.87
7578.00,0.87
7577.00,0.87
7576.00,0.87
7575.00,0.87
7574.00,0.87
7573.00,0.87
7572.00,0.87
7571.00,0.87
7570.00,0.87
7569.00,0.87
7568.00,0.87
7567.00,0.87
7566.00,0.87
7565.00,0.86
7564.00,0.86
7563.00,0.86
7562.00,0.86
7561.00,0.86
7560.00,0.86
7559.00,0.86
7558.00,0.86
7557.00,0.86
7556.00,0.86
7555.00,0.86
7554.00,0.86
7553.00,0.86
7552.00,0.86
7551.00,0.86
7550.00,0.86
7549.00,0.86
7548.00,0.86
7547.00,0.86
7546.00,0.86
7545.00,0.86
7544.00,0.86
7543.00,0.86
7542.00,0.86
7541.00,0.86
7540.00,0.86
7539.00,0.86
7538.00,0.86
7537.00,0.86
7536.00,0.86
7535.00,0.86
7534.00,0.86
7533.00,0.86
7532.00,0.86
7531.00,0.86
7530.00,0.86
7529.00,0.86
7528.00,0.86
7527.00,0.86
7526.00,0.86
7525.00,0.86
7524.00,0.86
7523.00,0.86
7522.00,0.86
7521.00,0.86
7520.00,0.86
7519.00,0.86
7518.00,0.86
7517.00,0.86
7516.00,0.86
7515.00,0.86
7514.00,0.86
7513.00,0.86
7512.00,0.86
7511.00,0.86
7510.00,0.86
7509.00,0.86
7508.00,0.86
7507.00,0.86
7506.00,0.86
7505.00,0.86
7504.00,0.86
7503.00,0.86
7502.00,0.86
7501.00,0.85
7500.00,0.85
7499.00,0.85
7498.00,0.85
7497.00,0.85
7496.00,0.85
7495.00,0.85
7494.00,0.85
7493.00,0.85
7492.00,0.85
7491.00,0.85
7490.00,0.85
7489.00,0.85
7488.00,0.85
7487.00,0.85
7486.00,0.85
7485.00,0.85
7484.00,0.85
7483.00,0.85
7482.00,0.85
7481.00,0.85
7480.00,0.85
7479.00,0.85
7478.00,0.85
7477.00,0.85
7476.00,0.84
7475.00,0.84
7474.00,0.84
7473.00,0.84
7472.00,0.84
7471.00,0.84
7470.00,0.84
7469.00,0.84
7468.00,0.84
7467.00,0.84
7466.00,0.83
7465.00,0.83
7464.00,0.83
7463.00,0.83
7462.00,0.83
7461.00,0.83
7460.00,0.83
7459.00,0.83
7458.00,0.83
7457.00,0.83
7456.00,0.83
7455.00,0.84
7454.00,0.84
7453.00,0.84
7452.00,0.84
7451.00,0.84
7450.00,0.84
7449.00,0.84
7448.00,0.84
7447.00,0.84
7446.00,0.84
7445.00,0.83
7444.00,0.83
7443.00,0.83
7442.00,0.83
7441.00,0.83
7440.00,0.83
7439.00,0.83
7438.00,0.83
7437.00,0.83
7436.00,0.83
7435.00,0.83
7434.00,0.83
7433.00,0.83
7432.00,0.83
7431.00,0.83
7430.00,0.83
7429.00,0.83
7428.00,0.83
7427.00,0.83
7426.00,0.83
7425.00,0.83
7424.00,0.83
7423.00,0.83
7422.00,0.83
7421.00,0.83
7420.00,0.83
7419.00,0.82
7418.00,0.82
7417.00,0.82
7416.00,0.82
7415.00,0.82
7414.00,0.82
7413.00,0.82
7412.00,0.82
7411.00,0.81
7410.00,0.81
7409.00,0.81
7408.00,0.81
7407.00,0.81
7406.00,0.81
7405.00,0.81
7404.00,0.81
7403.00,0.81
7402.00,0.81
7401.00,0.81
7400.00,0.81
7399.00,0.81
7398.00,0.81
7397.00,0.81
7396.00,0.81
7395.00,0.81
7394.00,0.81
7393.00,0.81
7392.00,0.81
7391.00,0.81
7390.00,0.81
7389.00,0.81
7388.00,0.81
7387.00,0.81
7386.00,0.81
7385.00,0.81
7384.00,0.81
7383.00,0.81
7382.00,0.81
7381.00,0.81
7380.00,0.81
7379.00,0.81
7378.00,0.80
7377.00,0.80
7376.00,0.80
7375.00,0.80
7374.00,0.80
7373.00,0.80
7372.00,0.80
7371.00,0.80
7370.00,0.80
7369.00,0.80
7368.00,0.80
7367.00,0.80
7366.00,0.80
7365.00,0.80
7364.00,0.79
7363.00,0.79
7362.00,0.79
7361.00,0.79
7360.00,0.79
7359.00,0.79
7358.00,0.79
7357.00,0.79
7356.00,0.79
7355.00,0.79
7354.00,0.79
7353.00,0.79
7352.00,0.79
7351.00,0.79
7350.00,0.79
7349.00,0.79
7348.00,0.79
7347.00,0.79
7346.00,0.79
7345.00,0.79
7344.00,0.79
7343.00,0.79
7342.00,0.79
7341.00,0.79
7340.00,0.79
7339.00,0.79
7338.00,0.79
7337.00,0.79
7336.00,0.79
7335.00,0.78
7334.00,0.78
7333.00,0.78
7332.00,0.78
7331.00,0.78
7330.00,0.78
7329.00,0.78
7328.00,0.78
7327.00,0.78
7326.00,0.78
7325.00,0.78
7324.00,0.78
7323.00,0.78
7322.00,0.78
7321.00,0.78
7320.00,0.78
7319.00,0.78
7318.00,0.78
7317.00,0.78
7316.00,0.78
7315.00,0.78
7314.00,0.78
7313.00,0.78
7312.00,0.78
7311.00,0.78
7310.00,0.78
7309.00,0.78
7308.00,0.77
7307.00,0.77
7306.00,0.77
7305.00,0.77
7304.00,0.77
7303.00,0.77
7302.00,0.77
7301.00,0.77
7300.00,0.77
7299.00,0.77
7298.00,0.77
7297.00,0.77
7296.00,0.77
7295.00,0.77
7294.00,0.77
7293.00,0.77
7292.00,0.77
7291.00,0.77
7290.00,0.77
7289.00,0.77
7288.00,0.77
7287.00,0.77
7286.00,0.77
7285.00,0.77
7284.00,0.77
7283.00,0.77
7282.00,0.77
7281.00,0.77
7280.00,0.77
7279.00,0.77
7278.00,0.77
7277.00,0.77
7276.00,0.77
7275.00,0.77
7274.00,0.77
7273.00,0.76
7272.00,0.76
7271.00,0.76
7270.00,0.76
7269.00,0.76
7268.00,0.76
7267.00,0.76
7266.00,0.76
7265.00,0.76
7264.00,0.76
7263.00,0.76
7262.00,0.76
7261.00,0.75
7260.00,0.75
7259.00,0.75
7258.00,0.75
7257.00,0.75
7256.00,0.75
7255.00,0.75
7254.00,0.75
7253.00,0.74
7252.00,0.74
7251.00,0.74
7250.00,0.74
7249.00,0.74
7248.00,0.74
7247.00,0.73
7246.00,0.73
7245.00,0.73
7244.00,0.73
7243.00,0.72
7242.00,0.72
7241.00,0.72
7240.00,0.72
7239.00,0.71
7238.00,0.71
7237.00,0.71
7236.00,0.71
7235.00,0.70
7234.00,0.70
7233.00,0.70
7232.00,0.70
7231.00,0.70
7230.00,0.70
7229.00,0.69
7228.00,0.69
7227.00,0.69
7226.00,0.69
7225.00,0.69
7224.00,0.69
7223.00,0.69
7222.00,0.68
7221.00,0.68
7220.00,0.68
7219.00,0.68
7218.00,0.68
7217.00,0.68
7216.00,0.67
7215.00,0.67
7214.00,0.67
7213.00,0.67
7212.00,0.66
7211.00,0.66
7210.00,0.66
7209.00,0.66
7208.00,0.65
7207.00,0.65
7206.00,0.65
7205.00,0.65
7204.00,0.64
7203.00,0.64
7202.00,0.64
7201.00,0.64
7200.00,0.64
7199.00,0.63
7198.00,0.63
7197.00,0.63
7196.00,0.63
7195.00,0.63
7194.00,0.63
7193.00,0.63
7192.00,0.62
7191.00,0.62
7190.00,0.62
7189.00,0.62
7188.00,0.62
7187.00,0.61
7186.00,0.61
7185.00,0.61
7184.00,0.61
7183.00,0.60
7182.00,0.60
7181.00,0.60
7180.00,0.60
7179.00,0.59
7178.00,0.59
7177.00,0.59
7176.00,0.59
7175.00,0.58
7174.00,0.58
7173.00,0.58
7172.00,0.58
7171.00,0.58
7170.00,0.57
7169.00,0.57
7168.00,0.57
7167.00,0.57
7166.00,0.57
7165.00,0.57
7164.00,0.56
7163.00,0.56
7162.00,0.56
7161.00,0.56
7160.00,0.56
7159.00,0.56
7158.00,0.56
7157.00,0.56
7156.00,0.56
7155.00,0.56
7154.00,0.56
7153.00,0.55
7152.00,0.55
7151.00,0.55
7150.00,0.55
7149.00,0.55
7148.00,0.55
7147.00,0.55
7146.00,0.54
7145.00,0.54
7144.00,0.54
7143.00,0.54
7142.00,0.54
7141.00,0.53
7140.00,0.53
7139.00,0.53
7138.00,0.53
7137.00,0.52
7136.00,0.52
7135.00,0.52
7134.00,0.52
7133.00,0.52
7132.00,0.52
7131.00,0.52
7130.00,0.51
7129.00,0.51
7128.00,0.51
7127.00,0.51
7126.00,0.51
7125.00,0.51
7124.00,0.51
7123.00,0.51
7122.00,0.51
7121.00,0.51
7120.00,0.51
7119.00,0.50
7118.00,0.50
7117.00,0.50
7116.00,0.50
7115.00,0.50
7114.00,0.50
7113.00,0.50
7112.00,0.50
7111.00,0.50
7110.00,0.49
7109.00,0.49
7108.00,0.49
7107.00,0.49
7106.00,0.49
7105.00,0.49
7104.00,0.49
7103.00,0.48
7102.00,0.48
7101.00,0.48
7100.00,0.48
7099.00,0.48
7098.00,0.48
7097.00,0.48
7096.00,0.47
7095.00,0.47
7094.00,0.47
7093.00,0.47
7092.00,0.47
7091.00,0.47
7090.00,0.47
7089.00,0.47
7088.00,0.47
7087.00,0.47
7086.00,0.47
7085.00,0.47
7084.00,0.47
7083.00,0.47
7082.00,0.47
7081.00,0.47
7080.00,0.47
7079.00,0.47
7078.00,0.47
7077.00,0.46
7076.00,0.46
7075.00,0.46
7074.00,0.46
7073.00,0.46
7072.00,0.46
7071.00,0.46
7070.00,0.46
7069.00,0.46
7068.00,0.46
7067.00,0.46
7066.00,0.45
7065.00,0.45
7064.00,0.45
7063.00,0.45
7062.00,0.45
7061.00,0.45
7060.00,0.45
7059.00,0.45
7058.00,0.45
7057.00,0.45
7056.00,0.45
7055.00,0.45
7054.00,0.44
7053.00,0.44
7052.00,0.44
7051.00,0.44
7050.00,0.44
7049.00,0.44
7048.00,0.44
7047.00,0.44
7046.00,0.44
7045.00,0.44
7044.00,0.44
7043.00,0.44
7042.00,0.44
7041.00,0.44
7040.00,0.44
7039.00,0.44
7038.00,0.44
7037.00,0.44
7036.00,0.44
7035.00,0.44
7034.00,0.44
7033.00,0.44
7032.00,0.44
7031.00,0.44
7030.00,0.44
7029.00,0.44
7028.00,0.44
7027.00,0.44
7026.00,0.44
7025.00,0.44
7024.00,0.44
7023.00,0.44
7022.00,0.44
7021.00,0.43
7020.00,0.43
7019.00,0.43
7018.00,0.43
7017.00,0.43
7016.00,0.43
7015.00,0.43
7014.00,0.43
7013.00,0.43
7012.00,0.43
7011.00,0.43
7010.00,0.43
7009.00,0.43
7008.00,0.43
7007.00,0.43
7006.00,0.43
7005.00,0.43
7004.00,0.43
7003.00,0.43
7002.00,0.43
7001.00,0.43
7000.00,0.43
6999.00,0.43
6998.00,0.43
6997.00,0.43
6996.00,0.43
6995.00,0.43
6994.00,0.43
6993.00,0.43
6992.00,0.43
6991.00,0.43
6990.00,0.43
6989.00,0.43
6988.00,0.43
6987.00,0.43
6986.00,0.43
6985.00,0.43
6984.00,0.43
6983.00,0.43
6982.00,0.43
6981.00,0.43
6980.00,0.43
6979.00,0.43
6978.00,0.43
6977.00,0.43
6976.00,0.43
6975.00,0.43
6974.00,0.43
6973.00,0.43
6972.00,0.43
6971.00,0.43
6970.00,0.43
6969.00,0.43
6968.00,0.43
6967.00,0.43
6966.00,0.43
6965.00,0.43
6964.00,0.43
6963.00,0.43
6962.00,0.43
6961.00,0.43
6960.00,0.43
6959.00,0.43
6958.00,0.43
6957.00,0.43
6956.00,0.43
6955.00,0.42
6954.00,0.42
6953.00,0.42
6952.00,0.42
6951.00,0.42
6950.00,0.42
6949.00,0.42
6948.00,0.42
6947.00,0.42
6946.00,0.42
6945.00,0.42
6944.00,0.42
6943.00,0.42
6942.00,0.42
6941.00,0.42
6940.00,0.42
6939.00,0.42
6938.00,0.42
6937.00,0.42
6936.00,0.42
6935.00,0.42
6934.00,0.42
6933.00,0.42
6932.00,0.42
6931.00,0.42
6930.00,0.42
6929.00,0.42
6928.00,0.41
6927.00,0.41
6926.00,0.41
6925.00,0.41
6924.00,0.41
6923.00,0.41
6922.00,0.41
6921.00,0.41
6920.00,0.41
6919.00,0.41
6918.00,0.41
6917.00,0.42
6916.00,0.42
6915.00,0.42
6914.00,0.42
6913.00,0.42
6912.00,0.42
6911.00,0.42
6910.00,0.42
6909.00,0.42
6908.00,0.42
6907.00,0.42
6906.00,0.42
6905.00,0.43
6904.00,0.43
6903.00,0.43
6902.00,0.43
6901.00,0.43
6900.00,0.43
6899.00,0.43
6898.00,0.43
6897.00,0.43
6896.00,0.43
6895.00,0.43
6894.00,0.42
6893.00,0.42
6892.00,0.42
6891.00,0.42
6890.00,0.42
6889.00,0.42
6888.00,0.42
6887.00,0.42
6886.00,0.42
6885.00,0.42
6884.00,0.42
6883.00,0.42
6882.00,0.42
6881.00,0.42
6880.00,0.42
6879.00,0.42
6878.00,0.42
6877.00,0.42
6876.00,0.42
6875.00,0.42
6874.00,0.42
6873.00,0.42
6872.00,0.42
6871.00,0.42
6870.00,0.42
6869.00,0.42
6868.00,0.42
6867.00,0.42
6866.00,0.42
6865.00,0.43
6864.00,0.43
6863.00,0.43
6862.00,0.43
6861.00,0.43
6860.00,0.43
6859.00,0.43
6858.00,0.43
6857.00,0.43
6856.00,0.43
6855.00,0.43
6854.00,0.43
6853.00,0.43
6852.00,0.43
6851.00,0.43
6850.00,0.43
6849.00,0.43
6848.00,0.43
6847.00,0.43
6846.00,0.43
6845.00,0.43
6844.00,0.43
6843.00,0.43
6842.00,0.43
6841.00,0.43
6840.00,0.43
6839.00,0.43
6838.00,0.43
6837.00,0.43
6836.00,0.43
6835.00,0.43
6834.00,0.43
6833.00,0.43
6832.00,0.43
6831.00,0.44
6830.00,0.44
6829.00,0.44
6828.00,0.44
6827.00,0.44
6826.00,0.44
6825.00,0.43
6824.00,0.43
6823.00,0.43
6822.00,0.43
6821.00,0.43
6820.00,0.43
6819.00,0.43
6818.00,0.43
6817.00,0.43
6816.00,0.43
6815.00,0.43
6814.00,0.43
6813.00,0.43
6812.00,0.43
6811.00,0.43
6810.00,0.43
6809.00,0.43
6808.00,0.43
6807.00,0.43
6806.00,0.43
6805.00,0.43
6804.00,0.43
6803.00,0.43
6802.00,0.43
6801.00,0.43
6800.00,0.43
6799.00,0.43
6798.00,0.43
6797.00,0.43
6796.00,0.43
6795.00,0.43
6794.00,0.43
6793.00,0.43
6792.00,0.43
6791.00,0.43
6790.00,0.43
6789.00,0.43
6788.00,0.43
6787.00,0.43
6786.00,0.43
6785.00,0.43
6784.00,0.43
6783.00,0.43
6782.00,0.43
6781.00,0.43
6780.00,0.43
6779.00,0.43
6778.00,0.43
6777.00,0.43
6776.00,0.43
6775.00,0.43
6774.00,0.44
6773.00,0.44
6772.00,0.44
6771.00,0.44
6770.00,0.44
6769.00,0.44
6768.00,0.44
6767.00,0.44
6766.00,0.44
6765.00,0.44
6764.00,0.44
6763.00,0.44
6762.00,0.44
6761.00,0.44
6760.00,0.44
6759.00,0.44
6758.00,0.44
6757.00,0.45
6756.00,0.45
6755.00,0.45
6754.00,0.45
6753.00,0.45
6752.00,0.45
6751.00,0.45
6750.00,0.45
6749.00,0.45
6748.00,0.45
6747.00,0.45
6746.00,0.45
6745.00,0.45
6744.00,0.45
6743.00,0.45
6742.00,0.45
6741.00,0.45
6740.00,0.45
6739.00,0.45
6738.00,0.45
6737.00,0.45
6736.00,0.45
6735.00,0.45
6734.00,0.45
6733.00,0.45
6732.00,0.45
6731.00,0.45
6730.00,0.45
6729.00,0.45
6728.00,0.45
6727.00,0.45
6726.00,0.45
6725.00,0.45
6724.00,0.45
6723.00,0.45
6722.00,0.45
6721.00,0.45
6720.00,0.45
6719.00,0.45
6718.00,0.45
6717.00,0.45
6716.00,0.45
6715.00,0.45
6714.00,0.45
6713.00,0.45
6712.00,0.45
6711.00,0.45
6710.00,0.46
6709.00,0.46
6708.00,0.46
6707.00,0.46
6706.00,0.46
6705.00,0.46
6704.00,0.46
6703.00,0.46
6702.00,0.46
6701.00,0.46
6700.00,0.46
6699.00,0.46
6698.00,0.46
6697.00,0.46
6696.00,0.46
6695.00,0.46
6694.00,0.47
6693.00,0.47
6692.00,0.47
6691.00,0.47
6690.00,0.47
6689.00,0.47
6688.00,0.47
6687.00,0.47
6686.00,0.47
6685.00,0.47
6684.00,0.47
6683.00,0.47
6682.00,0.47
6681.00,0.47
6680.00,0.47
6679.00,0.47
6678.00,0.48
6677.00,0.48
6676.00,0.48
6675.00,0.48
6674.00,0.48
6673.00,0.48
6672.00,0.48
6671.00,0.48
6670.00,0.48
6669.00,0.48
6668.00,0.48
6667.00,0.48
6666.00,0.48
6665.00,0.48
6664.00,0.48
6663.00,0.48
6662.00,0.48
6661.00,0.48
6660.00,0.48
6659.00,0.48
6658.00,0.48
6657.00,0.48
6656.00,0.48
6655.00,0.48
6654.00,0.48
6653.00,0.48
6652.00,0.48
6651.00,0.48
6650.00,0.48
6649.00,0.48
6648.00,0.48
6647.00,0.48
6646.00,0.48
6645.00,0.48
6644.00,0.49
6643.00,0.49
6642.00,0.49
6641.00,0.49
6640.00,0.49
6639.00,0.49
6638.00,0.49
6637.00,0.49
6636.00,0.50
6635.00,0.50
6634.00,0.50
6633.00,0.50
6632.00,0.50
6631.00,0.50
6630.00,0.50
6629.00,0.50
6628.00,0.50
6627.00,0.50
6626.00,0.51
6625.00,0.51
6624.00,0.51
6623.00,0.51
6622.00,0.51
6621.00,0.51
6620.00,0.51
6619.00,0.51
6618.00,0.51
6617.00,0.51
6616.00,0.51
6615.00,0.51
6614.00,0.51
6613.00,0.51
6612.00,0.51
6611.00,0.51
6610.00,0.51
6609.00,0.51
6608.00,0.51
6607.00,0.51
6606.00,0.51
6605.00,0.51
6604.00,0.51
6603.00,0.51
6602.00,0.51
6601.00,0.51
6600.00,0.51
6599.00,0.51
6598.00,0.51
6597.00,0.51
6596.00,0.52
6595.00,0.52
6594.00,0.52
6593.00,0.52
6592.00,0.52
6591.00,0.52
6590.00,0.52
6589.00,0.52
6588.00,0.52
6587.00,0.52
6586.00,0.52
6585.00,0.52
6584.00,0.52
6583.00,0.52
6582.00,0.52
6581.00,0.52
6580.00,0.52
6579.00,0.52
6578.00,0.53
6577.00,0.53
6576.00,0.53
6575.00,0.53
6574.00,0.53
6573.00,0.53
6572.00,0.53
6571.00,0.53
6570.00,0.53
6569.00,0.53
6568.00,0.53
6567.00,0.54
6566.00,0.54
6565.00,0.54
6564.00,0.54
6563.00,0.54
6562.00,0.54
6561.00,0.54
6560.00,0.54
6559.00,0.54
6558.00,0.54
6557.00,0.54
6556.00,0.54
6555.00,0.54
6554.00,0.54
6553.00,0.54
6552.00,0.54
6551.00,0.54
6550.00,0.54
6549.00,0.54
6548.00,0.54
6547.00,0.54
6546.00,0.54
6545.00,0.54
6544.00,0.54
6543.00,0.54
6542.00,0.54
6541.00,0.54
6540.00,0.54
6539.00,0.55
6538.00,0.55
6537.00,0.55
6536.00,0.55
6535.00,0.55
6534.00,0.55
6533.00,0.55
6532.00,0.55
6531.00,0.55
6530.00,0.55
6529.00,0.55
6528.00,0.55
6527.00,0.55
6526.00,0.55
6525.00,0.55
6524.00,0.55
6523.00,0.55
6522.00,0.55
6521.00,0.55
6520.00,0.55
6519.00,0.55
6518.00,0.55
6517.00,0.55
6516.00,0.55
6515.00,0.56
6514.00,0.56
6513.00,0.56
6512.00,0.56
6511.00,0.56
6510.00,0.56
6509.00,0.56
6508.00,0.56
6507.00,0.56
6506.00,0.56
6505.00,0.56
6504.00,0.56
6503.00,0.56
6502.00,0.56
6501.00,0.56
6500.00,0.56
6499.00,0.56
6498.00,0.56
6497.00,0.56
6496.00,0.56
6495.00,0.56
6494.00,0.56
6493.00,0.56
6492.00,0.56
6491.00,0.56
6490.00,0.56
6489.00,0.56
6488.00,0.56
6487.00,0.56
6486.00,0.56
6485.00,0.56
6484.00,0.57
6483.00,0.57
6482.00,0.57
6481.00,0.57
6480.00,0.57
6479.00,0.57
6478.00,0.57
6477.00,0.57
6476.00,0.57
6475.00,0.57
6474.00,0.57
6473.00,0.57
6472.00,0.57
6471.00,0.57
6470.00,0.57
6469.00,0.57
6468.00,0.57
6467.00,0.57
6466.00,0.57
6465.00,0.58
6464.00,0.58
6463.00,0.58
6462.00,0.58
6461.00,0.58
6460.00,0.58
6459.00,0.58
6458.00,0.58
6457.00,0.58
6456.00,0.58
6455.00,0.58
6454.00,0.58
6453.00,0.59
6452.00,0.59
6451.00,0.59
6450.00,0.59
6449.00,0.59
6448.00,0.59
6447.00,0.59
6446.00,0.59
6445.00,0.59
6444.00,0.59
6443.00,0.59
6442.00,0.59
6441.00,0.59
6440.00,0.59
6439.00,0.59
6438.00,0.59
6437.00,0.59
6436.00,0.59
6435.00,0.59
6434.00,0.59
6433.00,0.59
6432.00,0.59
6431.00,0.59
6430.00,0.59
6429.00,0.59
6428.00,0.59
6427.00,0.59
6426.00,0.59
6425.00,0.59
6424.00,0.59
6423.00,0.59
6422.00,0.59
6421.00,0.59
6420.00,0.59
6419.00,0.59
6418.00,0.59
6417.00,0.60
6416.00,0.60
6415.00,0.60
6414.00,0.60
6413.00,0.60
6412.00,0.60
6411.00,0.60
6410.00,0.60
6409.00,0.60
6408.00,0.60
6407.00,0.60
6406.00,0.60
6405.00,0.61
6404.00,0.61
6403.00,0.61
6402.00,0.61
6401.00,0.61
6400.00,0.61
6399.00,0.61
6398.00,0.61
6397.00,0.61
6396.00,0.62
6395.00,0.62
6394.00,0.62
6393.00,0.62
6392.00,0.62
6391.00,0.62
6390.00,0.62
6389.00,0.62
6388.00,0.62
6387.00,0.62
6386.00,0.62
6385.00,0.62
6384.00,0.62
6383.00,0.62
6382.00,0.62
6381.00,0.62
6380.00,0.62
6379.00,0.62
6378.00,0.62
6377.00,0.62
6376.00,0.62
6375.00,0.62
6374.00,0.62
6373.00,0.62
6372.00,0.62
6371.00,0.62
6370.00,0.62
6369.00,0.62
6368.00,0.62
6367.00,0.62
6366.00,0.62
6365.00,0.62
6364.00,0.62
6363.00,0.62
6362.00,0.62
6361.00,0.62
6360.00,0.62
6359.00,0.62
6358.00,0.62
6357.00,0.62
6356.00,0.63
6355.00,0.63
6354.00,0.63
6353.00,0.63
6352.00,0.63
6351.00,0.63
6350.00,0.63
6349.00,0.63
6348.00,0.63
6347.00,0.63
6346.00,0.64
6345.00,0.64
6344.00,0.64
6343.00,0.64
6342.00,0.64
6341.00,0.64
6340.00,0.64
6339.00,0.64
6338.00,0.64
6337.00,0.64
6336.00,0.64
6335.00,0.64
6334.00,0.65
6333.00,0.65
6332.00,0.65
6331.00,0.65
6330.00,0.65
6329.00,0.65
6328.00,0.65
6327.00,0.65
6326.00,0.65
6325.00,0.65
6324.00,0.65
6323.00,0.65
6322.00,0.65
6321.00,0.65
6320.00,0.65
6319.00,0.65
6318.00,0.65
6317.00,0.65
6316.00,0.65
6315.00,0.65
6314.00,0.65
6313.00,0.65
6312.00,0.65
6311.00,0.65
6310.00,0.65
6309.00,0.65
6308.00,0.65
6307.00,0.65
6306.00,0.65
6305.00,0.65
6304.00,0.65
6303.00,0.66
6302.00,0.66
6301.00,0.66
6300.00,0.66
6299.00,0.66
6298.00,0.66
6297.00,0.66
6296.00,0.66
6295.00,0.66
6294.00,0.66
6293.00,0.66
6292.00,0.66
6291.00,0.66
6290.00,0.66
6289.00,0.67
6288.00,0.67
6287.00,0.67
6286.00,0.67
6285.00,0.67
6284.00,0.67
6283.00,0.67
6282.00,0.67
6281.00,0.67
6280.00,0.67
6279.00,0.67
6278.00,0.67
6277.00,0.68
6276.00,0.68
6275.00,0.68
6274.00,0.68
6273.00,0.68
6272.00,0.68
6271.00,0.68
6270.00,0.68
6269.00,0.68
6268.00,0.68
6267.00,0.68
6266.00,0.68
6265.00,0.69
6264.00,0.69
6263.00,0.69
6262.00,0.69
6261.00,0.69
6260.00,0.69
6259.00,0.69
6258.00,0.69
6257.00,0.69
6256.00,0.69
6255.00,0.69
6254.00,0.69
6253.00,0.69
6252.00,0.69
6251.00,0.69
6250.00,0.70
6249.00,0.70
6248.00,0.70
6247.00,0.70
6246.00,0.70
6245.00,0.70
6244.00,0.70
6243.00,0.70
6242.00,0.70
6241.00,0.70
6240.00,0.70
6239.00,0.70
6238.00,0.71
6237.00,0.71
6236.00,0.71
6235.00,0.71
6234.00,0.71
6233.00,0.71
6232.00,0.71
6231.00,0.71
6230.00,0.71
6229.00,0.71
6228.00,0.71
6227.00,0.71
6226.00,0.71
6225.00,0.71
6224.00,0.71
6223.00,0.71
6222.00,0.71
6221.00,0.71
6220.00,0.71
6219.00,0.71
6218.00,0.71
6217.00,0.71
6216.00,0.71
6215.00,0.71
6214.00,0.71
6213.00,0.71
6212.00,0.71
6211.00,0.71
6210.00,0.71
6209.00,0.72
6208.00,0.72
6207.00,0.72
6206.00,0.72
6205.00,0.72
6204.00,0.72
6203.00,0.72
6202.00,0.72
6201.00,0.72
6200.00,0.72
6199.00,0.72
6198.00,0.72
6197.00,0.72
6196.00,0.72
6195.00,0.72
6194.00,0.72
6193.00,0.73
6192.00,0.73
6191.00,0.73
6190.00,0.73
6189.00,0.73
6188.00,0.73
6187.00,0.73
6186.00,0.73
6185.00,0.73
6184.00,0.73
6183.00,0.73
6182.00,0.73
6181.00,0.74
6180.00,0.74
6179.00,0.74
6178.00,0.74
6177.00,0.74
6176.00,0.74
6175.00,0.74
6174.00,0.75
6173.00,0.75
6172.00,0.75
6171.00,0.75
6170.00,0.75
6169.00,0.75
6168.00,0.75
6167.00,0.75
6166.00,0.76
6165.00,0.76
6164.00,0.76
6163.00,0.76
6162.00,0.76
6161.00,0.76
6160.00,0.76
6159.00,0.76
6158.00,0.76
6157.00,0.76
6156.00,0.76
6155.00,0.76
6154.00,0.76
6153.00,0.76
6152.00,0.76
6151.00,0.76
6150.00,0.76
6149.00,0.76
6148.00,0.76
6147.00,0.76
6146.00,0.76
6145.00,0.76
6144.00,0.76
6143.00,0.77
6142.00,0.77
6141.00,0.77
6140.00,0.77
6139.00,0.77
6138.00,0.77
6137.00,0.77
6136.00,0.77
6135.00,0.77
6134.00,0.77
6133.00,0.77
6132.00,0.77
6131.00,0.78
6130.00,0.78
6129.00,0.78
6128.00,0.78
6127.00,0.78
6126.00,0.78
6125.00,0.78
6124.00,0.78
6123.00,0.78
6122.00,0.78
6121.00,0.78
6120.00,0.78
6119.00,0.79
6118.00,0.79
6117.00,0.79
6116.00,0.79
6115.00,0.79
6114.00,0.79
6113.00,0.79
6112.00,0.79
6111.00,0.79
6110.00,0.80
6109.00,0.80
6108.00,0.80
6107.00,0.80
6106.00,0.80
6105.00,0.80
6104.00,0.80
6103.00,0.80
6102.00,0.80
6101.00,0.80
6100.00,0.80
6099.00,0.80
6098.00,0.80
6097.00,0.80
6096.00,0.80
6095.00,0.81
6094.00,0.81
6093.00,0.81
6092.00,0.81
6091.00,0.81
6090.00,0.81
6089.00,0.81
6088.00,0.81
6087.00,0.81
6086.00,0.81
6085.00,0.81
6084.00,0.81
6083.00,0.81
6082.00,0.81
6081.00,0.81
6080.00,0.81
6079.00,0.81
6078.00,0.81
6077.00,0.81
6076.00,0.81
6075.00,0.81
6074.00,0.81
6073.00,0.82
6072.00,0.82
6071.00,0.82
6070.00,0.82
6069.00,0.82
6068.00,0.82
6067.00,0.82
6066.00,0.82
6065.00,0.82
6064.00,0.83
6063.00,0.83
6062.00,0.83
6061.00,0.83
6060.00,0.83
6059.00,0.83
6058.00,0.83
6057.00,0.83
6056.00,0.83
6055.00,0.83
6054.00,0.83
6053.00,0.83
6052.00,0.83
6051.00,0.84
6050.00,0.84
6049.00,0.84
6048.00,0.84
6047.00,0.84
6046.00,0.84
6045.00,0.84
6044.00,0.84
6043.00,0.84
6042.00,0.84
6041.00,0.84
6040.00,0.84
6039.00,0.84
6038.00,0.84
6037.00,0.84
6036.00,0.84
6035.00,0.84
6034.00,0.84
6033.00,0.84
6032.00,0.84
6031.00,0.84
6030.00,0.84
6029.00,0.84
6028.00,0.84
6027.00,0.84
6026.00,0.84
6025.00,0.84
6024.00,0.84
6023.00,0.84
6022.00,0.84
6021.00,0.84
6020.00,0.84
6019.00,0.84
6018.00,0.84
6017.00,0.84
6016.00,0.84
6015.00,0.84
6014.00,0.84
6013.00,0.84
6012.00,0.84
6011.00,0.84
6010.00,0.84
6009.00,0.84
6008.00,0.84
6007.00,0.84
6006.00,0.84
6005.00,0.84
6004.00,0.84
6003.00,0.84
6002.00,0.84
6001.00,0.84
6000.00,0.84
5999.00,0.84
5998.00,0.84
5997.00,0.84
5996.00,0.84
5995.00,0.84
5994.00,0.84
5993.00,0.84
5992.00,0.84
5991.00,0.84
5990.00,0.84
5989.00,0.84
5988.00,0.84
5987.00,0.84
5986.00,0.83
5985.00,0.83
5984.00,0.83
5983.00,0.83
5982.00,0.83
5981.00,0.83
5980.00,0.83
5979.00,0.82
5978.00,0.82
5977.00,0.82
5976.00,0.82
5975.00,0.81
5974.00,0.81
5973.00,0.81
5972.00,0.81
5971.00,0.80
5970.00,0.80
5969.00,0.80
5968.00,0.79
5967.00,0.79
5966.00,0.79
5965.00,0.78
5964.00,0.78
5963.00,0.78
5962.00,0.78
5961.00,0.77
5960.00,0.77
5959.00,0.77
5958.00,0.76
5957.00,0.76
5956.00,0.76
5955.00,0.76
5954.00,0.75
5953.00,0.75
5952.00,0.75
5951.00,0.75
5950.00,0.74
5949.00,0.74
5948.00,0.74
5947.00,0.74
5946.00,0.74
5945.00,0.73
5944.00,0.73
5943.00,0.73
5942.00,0.73
5941.00,0.73
5940.00,0.73
5939.00,0.73
5938.00,0.73
5937.00,0.73
5936.00,0.73
5935.00,0.72
5934.00,0.72
5933.00,0.72
5932.00,0.72
5931.00,0.72
5930.00,0.72
5929.00,0.72
5928.00,0.72
5927.00,0.72
5926.00,0.72
5925.00,0.72
5924.00,0.72
5923.00,0.71
5922.00,0.71
5921.00,0.71
5920.00,0.71
5919.00,0.71
5918.00,0.71
5917.00,0.71
5916.00,0.70
5915.00,0.70
5914.00,0.70
5913.00,0.70
5912.00,0.70
5911.00,0.70
5910.00,0.70
5909.00,0.70
5908.00,0.70
5907.00,0.70
5906.00,0.70
5905.00,0.70
5904.00,0.70
5903.00,0.70
5902.00,0.70
5901.00,0.70
5900.00,0.70
5899.00,0.70
5898.00,0.70
5897.00,0.70
5896.00,0.70
5895.00,0.70
5894.00,0.70
5893.00,0.71
5892.00,0.71
5891.00,0.71
5890.00,0.71
5889.00,0.71
5888.00,0.71
5887.00,0.71
5886.00,0.71
5885.00,0.72
5884.00,0.72
5883.00,0.72
5882.00,0.72
5881.00,0.72
5880.00,0.72
5879.00,0.73
5878.00,0.73
5877.00,0.73
5876.00,0.73
5875.00,0.73
5874.00,0.73
5873.00,0.73
5872.00,0.74
5871.00,0.74
5870.00,0.74
5869.00,0.74
5868.00,0.74
5867.00,0.74
5866.00,0.74
5865.00,0.74
5864.00,0.74
5863.00,0.75
5862.00,0.75
5861.00,0.75
5860.00,0.75
5859.00,0.75
5858.00,0.75
5857.00,0.75
5856.00,0.75
5855.00,0.75
5854.00,0.75
5853.00,0.75
5852.00,0.75
5851.00,0.75
5850.00,0.75
5849.00,0.75
5848.00,0.75
5847.00,0.75
5846.00,0.75
5845.00,0.75
5844.00,0.75
5843.00,0.75
5842.00,0.75
5841.00,0.76
5840.00,0.76
5839.00,0.76
5838.00,0.76
5837.00,0.76
5836.00,0.76
5835.00,0.76
5834.00,0.76
5833.00,0.76
5832.00,0.76
5831.00,0.76
5830.00,0.76
5829.00,0.75
5828.00,0.75
5827.00,0.75
5826.00,0.75
5825.00,0.75
5824.00,0.75
5823.00,0.75
5822.00,0.75
5821.00,0.75
5820.00,0.75
5819.00,0.75
5818.00,0.75
5817.00,0.75
5816.00,0.75
5815.00,0.75
5814.00,0.75
5813.00,0.75
5812.00,0.75
5811.00,0.75
5810.00,0.75
5809.00,0.75
5808.00,0.75
5807.00,0.75
5806.00,0.75
5805.00,0.75
5804.00,0.75
5803.00,0.75
5802.00,0.75
5801.00,0.75
5800.00,0.75
5799.00,0.75
5798.00,0.75
5797.00,0.75
5796.00,0.74
5795.00,0.74
5794.00,0.74
5793.00,0.74
5792.00,0.74
5791.00,0.74
5790.00,0.74
5789.00,0.74
5788.00,0.74
5787.00,0.74
5786.00,0.74
5785.00,0.73
5784.00,0.73
5783.00,0.73
5782.00,0.73
5781.00,0.73
5780.00,0.73
5779.00,0.73
5778.00,0.73
5777.00,0.73
5776.00,0.73
5775.00,0.73
5774.00,0.73
5773.00,0.73
5772.00,0.73
5771.00,0.73
5770.00,0.73
5769.00,0.73
5768.00,0.73
5767.00,0.73
5766.00,0.73
5765.00,0.73
5764.00,0.73
5763.00,0.73
5762.00,0.73
5761.00,0.73
5760.00,0.73
5759.00,0.74
5758.00,0.74
5757.00,0.74
5756.00,0.74
5755.00,0.74
5754.00,0.74
5753.00,0.74
5752.00,0.75
5751.00,0.75
5750.00,0.75
5749.00,0.75
5748.00,0.75
5747.00,0.75
5746.00,0.76
5745.00,0.76
5744.00,0.76
5743.00,0.76
5742.00,0.76
5741.00,0.76
5740.00,0.76
5739.00,0.77
5738.00,0.77
5737.00,0.77
5736.00,0.77
5735.00,0.77
5734.00,0.77
5733.00,0.77
5732.00,0.77
5731.00,0.77
5730.00,0.77
5729.00,0.77
5728.00,0.77
5727.00,0.77
5726.00,0.77
5725.00,0.77
5724.00,0.77
5723.00,0.77
5722.00,0.77
5721.00,0.77
5720.00,0.77
5719.00,0.77
5718.00,0.77
5717.00,0.77
5716.00,0.77
5715.00,0.77
5714.00,0.77
5713.00,0.77
5712.00,0.77
5711.00,0.77
5710.00,0.77
5709.00,0.77
5708.00,0.77
5707.00,0.77
5706.00,0.77
5705.00,0.77
5704.00,0.77
5703.00,0.77
5702.00,0.77
5701.00,0.77
5700.00,0.77
5699.00,0.77
5698.00,0.76
5697.00,0.76
5696.00,0.76
5695.00,0.76
5694.00,0.76
5693.00,0.76
5692.00,0.76
5691.00,0.76
5690.00,0.76
5689.00,0.76
5688.00,0.76
5687.00,0.76
5686.00,0.76
5685.00,0.76
5684.00,0.76
5683.00,0.76
5682.00,0.76
5681.00,0.76
5680.00,0.75
5679.00,0.75
5678.00,0.75
5677.00,0.75
5676.00,0.75
5675.00,0.75
5674.00,0.75
5673.00,0.75
5672.00,0.75
5671.00,0.75
5670.00,0.75
5669.00,0.75
5668.00,0.75
5667.00,0.75
5666.00,0.75
5665.00,0.75
5664.00,0.75
5663.00,0.75
5662.00,0.75
5661.00,0.75
5660.00,0.75
5659.00,0.75
5658.00,0.76
5657.00,0.76
5656.00,0.76
5655.00,0.76
5654.00,0.76
5653.00,0.76
5652.00,0.76
5651.00,0.76
5650.00,0.76
5649.00,0.76
5648.00,0.76
5647.00,0.76
5646.00,0.76
5645.00,0.76
5644.00,0.77
5643.00,0.77
5642.00,0.77
5641.00,0.77
5640.00,0.77
5639.00,0.77
5638.00,0.77
5637.00,0.77
5636.00,0.77
5635.00,0.77
5634.00,0.77
5633.00,0.77
5632.00,0.77
5631.00,0.77
5630.00,0.77
5629.00,0.78
5628.00,0.78
5627.00,0.78
5626.00,0.78
5625.00,0.78
5624.00,0.78
5623.00,0.78
5622.00,0.78
5621.00,0.78
5620.00,0.78
5619.00,0.78
5618.00,0.78
5617.00,0.78
5616.00,0.78
5615.00,0.78
5614.00,0.78
5613.00,0.78
5612.00,0.79
5611.00,0.79
5610.00,0.79
5609.00,0.79
5608.00,0.79
5607.00,0.79
5606.00,0.79
5605.00,0.79
5604.00,0.79
5603.00,0.79
5602.00,0.79
5601.00,0.79
5600.00,0.80
5599.00,0.80
5598.00,0.80
5597.00,0.80
5596.00,0.80
5595.00,0.80
5594.00,0.80
5593.00,0.80
5592.00,0.80
5591.00,0.80
5590.00,0.80
5589.00,0.80
5588.00,0.80
5587.00,0.81
5586.00,0.81
5585.00,0.81
5584.00,0.81
5583.00,0.81
5582.00,0.81
5581.00,0.81
5580.00,0.81
5579.00,0.81
5578.00,0.81
5577.00,0.81
5576.00,0.81
5575.00,0.82
5574.00,0.82
5573.00,0.82
5572.00,0.82
5571.00,0.82
5570.00,0.82
5569.00,0.82
5568.00,0.82
5567.00,0.82
5566.00,0.82
5565.00,0.82
5564.00,0.82
5563.00,0.82
5562.00,0.83
5561.00,0.83
5560.00,0.83
5559.00,0.83
5558.00,0.83
5557.00,0.83
5556.00,0.83
5555.00,0.83
5554.00,0.83
5553.00,0.83
5552.00,0.83
5551.00,0.83
5550.00,0.83
5549.00,0.83
5548.00,0.83
5547.00,0.83
5546.00,0.83
5545.00,0.83
5544.00,0.83
5543.00,0.83
5542.00,0.83
5541.00,0.83
5540.00,0.83
5539.00,0.83
5538.00,0.83
5537.00,0.83
5536.00,0.83
5535.00,0.84
5534.00,0.84
5533.00,0.84
5532.00,0.84
5531.00,0.84
5530.00,0.84
5529.00,0.84
5528.00,0.84
5527.00,0.84
5526.00,0.84
5525.00,0.84
5524.00,0.84
5523.00,0.84
5522.00,0.84
5521.00,0.84
5520.00,0.84
5519.00,0.85
5518.00,0.85
5517.00,0.85
5516.00,0.85
5515.00,0.85
5514.00,0.85
5513.00,0.85
5512.00,0.85
5511.00,0.85
5510.00,0.85
5509.00,0.85
5508.00,0.85
5507.00,0.85
5506.00,0.85
5505.00,0.85
5504.00,0.85
5503.00,0.85
5502.00,0.85
5501.00,0.85
5500.00,0.85
5499.00,0.85
5498.00,0.85
5497.00,0.85
5496.00,0.85
5495.00,0.85
5494.00,0.85
5493.00,0.85
5492.00,0.85
5491.00,0.85
5490.00,0.85
5489.00,0.85
5488.00,0.85
5487.00,0.85
5486.00,0.85
5485.00,0.85
5484.00,0.85
5483.00,0.86
5482.00,0.86
5481.00,0.86
5480.00,0.86
5479.00,0.86
5478.00,0.86
5477.00,0.86
5476.00,0.86
5475.00,0.86
5474.00,0.86
5473.00,0.86
5472.00,0.86
5471.00,0.86
5470.00,0.86
5469.00,0.86
5468.00,0.86
5467.00,0.86
5466.00,0.86
5465.00,0.86
5464.00,0.86
5463.00,0.87
5462.00,0.87
5461.00,0.87
5460.00,0.87
5459.00,0.87
5458.00,0.87
5457.00,0.87
5456.00,0.87
5455.00,0.87
5454.00,0.87
5453.00,0.87
5452.00,0.87
5451.00,0.87
5450.00,0.87
5449.00,0.87
5448.00,0.87
5447.00,0.87
5446.00,0.87
5445.00,0.87
5444.00,0.87
5443.00,0.87
5442.00,0.87
5441.00,0.87
5440.00,0.87
5439.00,0.87
5438.00,0.87
5437.00,0.87
5436.00,0.87
5435.00,0.87
5434.00,0.87
5433.00,0.87
5432.00,0.87
5431.00,0.87
5430.00,0.87
5429.00,0.87
5428.00,0.87
5427.00,0.87
5426.00,0.87
5425.00,0.87
5424.00,0.87
5423.00,0.87
5422.00,0.87
5421.00,0.87
5420.00,0.87
5419.00,0.87
5418.00,0.87
5417.00,0.87
5416.00,0.87
5415.00,0.87
5414.00,0.87
5413.00,0.87
5412.00,0.87
5411.00,0.87
5410.00,0.86
5409.00,0.86
5408.00,0.86
5407.00,0.86
5406.00,0.86
5405.00,0.86
5404.00,0.86
5403.00,0.86
5402.00,0.86
5401.00,0.86
5400.00,0.86
5399.00,0.86
5398.00,0.86
5397.00,0.86
5396.00,0.86
5395.00,0.86
5394.00,0.85
5393.00,0.85
5392.00,0.85
5391.00,0.85
5390.00,0.85
5389.00,0.85
5388.00,0.85
5387.00,0.84
5386.00,0.84
5385.00,0.84
5384.00,0.84
5383.00,0.84
5382.00,0.84
5381.00,0.83
5380.00,0.83
5379.00,0.83
5378.00,0.83
5377.00,0.83
5376.00,0.82
5375.00,0.82
5374.00,0.82
5373.00,0.82
5372.00,0.81
5371.00,0.81
5370.00,0.81
5369.00,0.81
5368.00,0.80
5367.00,0.80
5366.00,0.80
5365.00,0.80
5364.00,0.79
5363.00,0.79
5362.00,0.79
5361.00,0.78
5360.00,0.78
5359.00,0.77
5358.00,0.77
5357.00,0.77
5356.00,0.76
5355.00,0.76
5354.00,0.75
5353.00,0.75
5352.00,0.74
5351.00,0.74
5350.00,0.73
5349.00,0.73
5348.00,0.72
5347.00,0.72
5346.00,0.71
5345.00,0.71
5344.00,0.70
5343.00,0.70
5342.00,0.69
5341.00,0.69
5340.00,0.68
5339.00,0.68
5338.00,0.68
5337.00,0.67
5336.00,0.67
5335.00,0.66
5334.00,0.66
5333.00,0.65
5332.00,0.65
5331.00,0.65
5330.00,0.64
5329.00,0.64
5328.00,0.63
5327.00,0.63
5326.00,0.63
5325.00,0.62
5324.00,0.62
5323.00,0.61
5322.00,0.61
5321.00,0.61
5320.00,0.60
5319.00,0.60
5318.00,0.60
5317.00,0.60
5316.00,0.59
5315.00,0.59
5314.00,0.59
5313.00,0.58
5312.00,0.58
5311.00,0.58
5310.00,0.58
5309.00,0.57
5308.00,0.57
5307.00,0.57
5306.00,0.57
5305.00,0.56
5304.00,0.56
5303.00,0.56
5302.00,0.56
5301.00,0.56
5300.00,0.56
5299.00,0.55
5298.00,0.55
5297.00,0.55
5296.00,0.55
5295.00,0.55
5294.00,0.55
5293.00,0.55
5292.00,0.55
5291.00,0.55
5290.00,0.55
5289.00,0.55
5288.00,0.55
5287.00,0.55
5286.00,0.55
5285.00,0.55
5284.00,0.55
5283.00,0.55
5282.00,0.55
5281.00,0.55
5280.00,0.55
5279.00,0.55
5278.00,0.55
5277.00,0.55
5276.00,0.55
5275.00,0.55
5274.00,0.55
5273.00,0.55
5272.00,0.55
5271.00,0.55
5270.00,0.55
5269.00,0.55
5268.00,0.55
5267.00,0.55
5266.00,0.55
5265.00,0.55
5264.00,0.55
5263.00,0.54
5262.00,0.54
5261.00,0.54
5260.00,0.54
5259.00,0.54
5258.00,0.54
5257.00,0.54
5256.00,0.54
5255.00,0.54
5254.00,0.54
5253.00,0.54
5252.00,0.54
5251.00,0.54
5250.00,0.54
5249.00,0.54
5248.00,0.54
5247.00,0.54
5246.00,0.54
5245.00,0.55
5244.00,0.55
5243.00,0.55
5242.00,0.55
5241.00,0.55
5240.00,0.55
5239.00,0.55
5238.00,0.55
5237.00,0.55
5236.00,0.55
5235.00,0.55
5234.00,0.55
5233.00,0.55
5232.00,0.55
5231.00,0.55
5230.00,0.55
5229.00,0.55
5228.00,0.55
5227.00,0.55
5226.00,0.55
5225.00,0.55
5224.00,0.55
5223.00,0.55
5222.00,0.55
5221.00,0.55
5220.00,0.55
5219.00,0.55
5218.00,0.55
5217.00,0.55
5216.00,0.55
5215.00,0.55
5214.00,0.55
5213.00,0.56
5212.00,0.56
5211.00,0.56
5210.00,0.56
5209.00,0.56
5208.00,0.56
5207.00,0.56
5206.00,0.56
5205.00,0.56
5204.00,0.56
5203.00,0.56
5202.00,0.56
5201.00,0.56
5200.00,0.56
5199.00,0.56
5198.00,0.56
5197.00,0.56
5196.00,0.56
5195.00,0.56
5194.00,0.56
5193.00,0.56
5192.00,0.56
5191.00,0.56
5190.00,0.56
5189.00,0.56
5188.00,0.56
5187.00,0.56
5186.00,0.56
5185.00,0.56
5184.00,0.56
5183.00,0.56
5182.00,0.56
5181.00,0.56
5180.00,0.56
5179.00,0.56
5178.00,0.56
5177.00,0.56
5176.00,0.56
5175.00,0.56
5174.00,0.56
5173.00,0.56
5172.00,0.56
5171.00,0.56
5170.00,0.56
5169.00,0.56
5168.00,0.56
5167.00,0.56
5166.00,0.56
5165.00,0.56
5164.00,0.56
5163.00,0.56
5162.00,0.56
5161.00,0.56
5160.00,0.56
5159.00,0.56
5158.00,0.56
5157.00,0.56
5156.00,0.56
5155.00,0.57
5154.00,0.57
5153.00,0.57
5152.00,0.57
5151.00,0.57
5150.00,0.57
5149.00,0.57
5148.00,0.57
5147.00,0.57
5146.00,0.57
5145.00,0.57
5144.00,0.57
5143.00,0.57
5142.00,0.57
5141.00,0.57
5140.00,0.57
5139.00,0.57
5138.00,0.57
5137.00,0.57
5136.00,0.57
5135.00,0.57
5134.00,0.57
5133.00,0.57
5132.00,0.57
5131.00,0.57
5130.00,0.57
5129.00,0.57
5128.00,0.57
5127.00,0.57
5126.00,0.57
5125.00,0.57
5124.00,0.57
5123.00,0.57
5122.00,0.57
5121.00,0.57
5120.00,0.58
5119.00,0.58
5118.00,0.58
5117.00,0.58
5116.00,0.58
5115.00,0.58
5114.00,0.58
5113.00,0.58
5112.00,0.58
5111.00,0.58
5110.00,0.58
5109.00,0.58
5108.00,0.58
5107.00,0.58
5106.00,0.58
5105.00,0.58
5104.00,0.58
5103.00,0.58
5102.00,0.58
5101.00,0.58
5100.00,0.58
5099.00,0.58
5098.00,0.58
5097.00,0.58
5096.00,0.59
5095.00,0.59
5094.00,0.59
5093.00,0.59
5092.00,0.59
5091.00,0.59
5090.00,0.59
5089.00,0.59
5088.00,0.59
5087.00,0.59
5086.00,0.59
5085.00,0.59
5084.00,0.59
5083.00,0.59
5082.00,0.59
5081.00,0.59
5080.00,0.59
5079.00,0.59
5078.00,0.59
5077.00,0.59
5076.00,0.59
5075.00,0.59
5074.00,0.59
5073.00,0.59
5072.00,0.59
5071.00,0.59
5070.00,0.59
5069.00,0.59
5068.00,0.59
5067.00,0.59
5066.00,0.59
5065.00,0.59
5064.00,0.59
5063.00,0.59
5062.00,0.59
5061.00,0.59
5060.00,0.59
5059.00,0.59
5058.00,0.59
5057.00,0.59
5056.00,0.59
5055.00,0.59
5054.00,0.59
5053.00,0.59
5052.00,0.59
5051.00,0.59
5050.00,0.59
5049.00,0.59
5048.00,0.59
5047.00,0.59
5046.00,0.59
5045.00,0.59
5044.00,0.59
5043.00,0.60
5042.00,0.60
5041.00,0.60
5040.00,0.60
5039.00,0.60
5038.00,0.60
5037.00,0.60
5036.00,0.60
5035.00,0.60
5034.00,0.60
5033.00,0.60
5032.00,0.60
5031.00,0.60
5030.00,0.60
5029.00,0.60
5028.00,0.60
5027.00,0.60
5026.00,0.60
5025.00,0.60
5024.00,0.60
5023.00,0.60
5022.00,0.60
5021.00,0.60
5020.00,0.60
5019.00,0.60
5018.00,0.60
5017.00,0.60
5016.00,0.60
5015.00,0.60
5014.00,0.60
5013.00,0.60
5012.00,0.61
5011.00,0.61
5010.00,0.61
5009.00,0.61
5008.00,0.61
5007.00,0.61
5006.00,0.61
5005.00,0.61
5004.00,0.61
5003.00,0.61
5002.00,0.61
5001.00,0.61
5000.00,0.61
4999.00,0.61
4998.00,0.61
4997.00,0.61
4996.00,0.61
4995.00,0.61
4994.00,0.61
4993.00,0.61
4992.00,0.61
4991.00,0.61
4990.00,0.62
4989.00,0.62
4988.00,0.62
4987.00,0.62
4986.00,0.62
4985.00,0.62
4984.00,0.62
4983.00,0.62
4982.00,0.62
4981.00,0.62
4980.00,0.62
4979.00,0.62
4978.00,0.62
4977.00,0.62
4976.00,0.62
4975.00,0.62
4974.00,0.62
4973.00,0.62
4972.00,0.62
4971.00,0.62
4970.00,0.62
4969.00,0.62
4968.00,0.62
4967.00,0.62
4966.00,0.62
4965.00,0.62
4964.00,0.62
4963.00,0.62
4962.00,0.62
4961.00,0.62
4960.00,0.62
4959.00,0.62
4958.00,0.62
4957.00,0.62
4956.00,0.62
4955.00,0.62
4954.00,0.62
4953.00,0.62
4952.00,0.63
4951.00,0.63
4950.00,0.63
4949.00,0.63
4948.00,0.63
4947.00,0.63
4946.00,0.63
4945.00,0.63
4944.00,0.63
4943.00,0.63
4942.00,0.63
4941.00,0.63
4940.00,0.63
4939.00,0.63
4938.00,0.63
4937.00,0.63
4936.00,0.63
4935.00,0.63
4934.00,0.63
4933.00,0.63
4932.00,0.63
4931.00,0.63
4930.00,0.63
4929.00,0.63
4928.00,0.63
4927.00,0.63
4926.00,0.64
4925.00,0.64
4924.00,0.64
4923.00,0.64
4922.00,0.64
4921.00,0.64
4920.00,0.64
4919.00,0.64
4918.00,0.64
4917.00,0.64
4916.00,0.64
4915.00,0.64
4914.00,0.64
4913.00,0.64
4912.00,0.64
4911.00,0.64
4910.00,0.64
4909.00,0.64
4908.00,0.64
4907.00,0.64
4906.00,0.64
4905.00,0.64
4904.00,0.64
4903.00,0.64
4902.00,0.64
4901.00,0.64
4900.00,0.64
4899.00,0.64
4898.00,0.64
4897.00,0.64
4896.00,0.64
4895.00,0.64
4894.00,0.64
4893.00,0.64
4892.00,0.64
4891.00,0.64
4890.00,0.64
4889.00,0.64
4888.00,0.64
4887.00,0.64
4886.00,0.64
4885.00,0.65
4884.00,0.65
4883.00,0.65
4882.00,0.65
4881.00,0.65
4880.00,0.65
4879.00,0.65
4878.00,0.65
4877.00,0.65
4876.00,0.65
4875.00,0.65
4874.00,0.65
4873.00,0.65
4872.00,0.65
4871.00,0.65
4870.00,0.65
4869.00,0.65
4868.00,0.65
4867.00,0.65
4866.00,0.65
4865.00,0.65
4864.00,0.65
4863.00,0.65
4862.00,0.65
4861.00,0.65
4860.00,0.65
4859.00,0.65
4858.00,0.65
4857.00,0.65
4856.00,0.65
4855.00,0.65
4854.00,0.65
4853.00,0.65
4852.00,0.65
4851.00,0.65
4850.00,0.65
4849.00,0.66
4848.00,0.66
4847.00,0.66
4846.00,0.66
4845.00,0.66
4844.00,0.66
4843.00,0.66
4842.00,0.66
4841.00,0.66
4840.00,0.66
4839.00,0.66
4838.00,0.66
4837.00,0.66
4836.00,0.66
4835.00,0.66
4834.00,0.66
4833.00,0.67
4832.00,0.67
4831.00,0.67
4830.00,0.67
4829.00,0.67
4828.00,0.67
4827.00,0.67
4826.00,0.67
4825.00,0.67
4824.00,0.67
4823.00,0.67
4822.00,0.67
4821.00,0.67
4820.00,0.67
4819.00,0.67
4818.00,0.67
4817.00,0.67
4816.00,0.67
4815.00,0.67
4814.00,0.67
4813.00,0.67
4812.00,0.67
4811.00,0.67
4810.00,0.67
4809.00,0.67
4808.00,0.67
4807.00,0.67
4806.00,0.67
4805.00,0.67
4804.00,0.67
4803.00,0.67
4802.00,0.67
4801.00,0.67
4800.00,0.67
4799.00,0.67
4798.00,0.67
4797.00,0.67
4796.00,0.67
4795.00,0.67
4794.00,0.67
4793.00,0.67
4792.00,0.68
4791.00,0.68
4790.00,0.68
4789.00,0.68
4788.00,0.68
4787.00,0.68
4786.00,0.68
4785.00,0.68
4784.00,0.68
4783.00,0.68
4782.00,0.68
4781.00,0.68
4780.00,0.68
4779.00,0.68
4778.00,0.68
4777.00,0.68
4776.00,0.68
4775.00,0.69
4774.00,0.69
4773.00,0.69
4772.00,0.69
4771.00,0.69
4770.00,0.69
4769.00,0.69
4768.00,0.69
4767.00,0.69
4766.00,0.69
4765.00,0.69
4764.00,0.69
4763.00,0.69
4762.00,0.69
4761.00,0.69
4760.00,0.69
4759.00,0.69
4758.00,0.69
4757.00,0.70
4756.00,0.70
4755.00,0.70
4754.00,0.70
4753.00,0.70
4752.00,0.70
4751.00,0.70
4750.00,0.70
4749.00,0.70
4748.00,0.70
4747.00,0.70
4746.00,0.70
4745.00,0.70
4744.00,0.70
4743.00,0.70
4742.00,0.70
4741.00,0.71
4740.00,0.71
4739.00,0.71
4738.00,0.71
4737.00,0.71
4736.00,0.71
4735.00,0.71
4734.00,0.71
4733.00,0.71
4732.00,0.72
4731.00,0.72
4730.00,0.72
4729.00,0.72
4728.00,0.72
4727.00,0.72
4726.00,0.72
4725.00,0.72
4724.00,0.72
4723.00,0.72
4722.00,0.72
4721.00,0.72
4720.00,0.72
4719.00,0.72
4718.00,0.72
4717.00,0.72
4716.00,0.73
4715.00,0.73
4714.00,0.73
4713.00,0.73
4712.00,0.73
4711.00,0.73
4710.00,0.73
4709.00,0.73
4708.00,0.73
4707.00,0.73
4706.00,0.73
4705.00,0.73
4704.00,0.73
4703.00,0.73
4702.00,0.73
4701.00,0.73
4700.00,0.73
4699.00,0.73
4698.00,0.73
4697.00,0.74
4696.00,0.74
4695.00,0.74
4694.00,0.74
4693.00,0.74
4692.00,0.74
4691.00,0.74
4690.00,0.74
4689.00,0.74
4688.00,0.74
4687.00,0.74
4686.00,0.74
4685.00,0.74
4684.00,0.74
4683.00,0.74
4682.00,0.74
4681.00,0.74
4680.00,0.75
4679.00,0.75
4678.00,0.75
4677.00,0.75
4676.00,0.75
4675.00,0.75
4674.00,0.75
4673.00,0.75
4672.00,0.75
4671.00,0.75
4670.00,0.75
4669.00,0.75
4668.00,0.76
4667.00,0.76
4666.00,0.76
4665.00,0.76
4664.00,0.76
4663.00,0.76
4662.00,0.76
4661.00,0.76
4660.00,0.76
4659.00,0.76
4658.00,0.76
4657.00,0.76
4656.00,0.76
4655.00,0.76
4654.00,0.76
4653.00,0.76
4652.00,0.76
4651.00,0.76
4650.00,0.76
4649.00,0.76
4648.00,0.76
4647.00,0.76
4646.00,0.76
4645.00,0.77
4644.00,0.77
4643.00,0.77
4642.00,0.77
4641.00,0.77
4640.00,0.77
4639.00,0.77
4638.00,0.77
4637.00,0.77
4636.00,0.77
4635.00,0.77
4634.00,0.77
4633.00,0.77
4632.00,0.77
4631.00,0.77
4630.00,0.77
4629.00,0.77
4628.00,0.77
4627.00,0.77
4626.00,0.77
4625.00,0.77
4624.00,0.77
4623.00,0.77
4622.00,0.77
4621.00,0.77
4620.00,0.77
4619.00,0.77
4618.00,0.77
4617.00,0.77
4616.00,0.77
4615.00,0.77
4614.00,0.77
4613.00,0.77
4612.00,0.77
4611.00,0.77
4610.00,0.78
4609.00,0.78
4608.00,0.78
4607.00,0.78
4606.00,0.78
4605.00,0.78
4604.00,0.78
4603.00,0.78
4602.00,0.78
4601.00,0.78
4600.00,0.78
4599.00,0.78
4598.00,0.78
4597.00,0.78
4596.00,0.78
4595.00,0.78
4594.00,0.78
4593.00,0.78
4592.00,0.79
4591.00,0.79
4590.00,0.79
4589.00,0.79
4588.00,0.79
4587.00,0.79
4586.00,0.79
4585.00,0.79
4584.00,0.79
4583.00,0.79
4582.00,0.79
4581.00,0.79
4580.00,0.79
4579.00,0.79
4578.00,0.79
4577.00,0.79
4576.00,0.79
4575.00,0.80
4574.00,0.80
4573.00,0.80
4572.00,0.80
4571.00,0.80
4570.00,0.80
4569.00,0.80
4568.00,0.80
4567.00,0.80
4566.00,0.80
4565.00,0.80
4564.00,0.80
4563.00,0.80
4562.00,0.80
4561.00,0.80
4560.00,0.80
4559.00,0.80
4558.00,0.80
4557.00,0.80
4556.00,0.80
4555.00,0.80
4554.00,0.80
4553.00,0.80
4552.00,0.80
4551.00,0.80
4550.00,0.81
4549.00,0.81
4548.00,0.81
4547.00,0.81
4546.00,0.81
4545.00,0.81
4544.00,0.81
4543.00,0.81
4542.00,0.81
4541.00,0.81
4540.00,0.81
4539.00,0.81
4538.00,0.81
4537.00,0.81
4536.00,0.81
4535.00,0.81
4534.00,0.81
4533.00,0.81
4532.00,0.81
4531.00,0.81
4530.00,0.81
4529.00,0.81
4528.00,0.81
4527.00,0.81
4526.00,0.81
4525.00,0.81
4524.00,0.81
4523.00,0.81
4522.00,0.81
4521.00,0.81
4520.00,0.81
4519.00,0.81
4518.00,0.81
4517.00,0.81
4516.00,0.81
4515.00,0.81
4514.00,0.81
4513.00,0.81
4512.00,0.81
4511.00,0.81
4510.00,0.81
4509.00,0.81
4508.00,0.81
4507.00,0.81
4506.00,0.81
4505.00,0.81
4504.00,0.81
4503.00,0.81
4502.00,0.81
4501.00,0.81
4500.00,0.81
4499.00,0.81
4498.00,0.81
4497.00,0.81
4496.00,0.81
4495.00,0.81
4494.00,0.81
4493.00,0.81
4492.00,0.81
4491.00,0.81
4490.00,0.81
4489.00,0.81
4488.00,0.81
4487.00,0.81
4486.00,0.81
4485.00,0.81
4484.00,0.81
4483.00,0.81
4482.00,0.81
4481.00,0.81
4480.00,0.81
4479.00,0.81
4478.00,0.81
4477.00,0.81
4476.00,0.81
4475.00,0.81
4474.00,0.81
4473.00,0.81
4472.00,0.81
4471.00,0.81
4470.00,0.81
4469.00,0.81
4468.00,0.80
4467.00,0.80
4466.00,0.80
4465.00,0.80
4464.00,0.80
4463.00,0.80
4462.00,0.80
4461.00,0.80
4460.00,0.80
4459.00,0.79
4458.00,0.79
4457.00,0.79
4456.00,0.79
4455.00,0.79
4454.00,0.78
4453.00,0.78
4452.00,0.78
4451.00,0.78
4450.00,0.78
4449.00,0.78
4448.00,0.78
4447.00,0.77
4446.00,0.77
4445.00,0.77
4444.00,0.77
4443.00,0.77
4442.00,0.77
4441.00,0.77
4440.00,0.77
4439.00,0.76
4438.00,0.76
4437.00,0.76
4436.00,0.76
4435.00,0.76
4434.00,0.76
4433.00,0.76
4432.00,0.76
4431.00,0.76
4430.00,0.75
4429.00,0.75
4428.00,0.75
4427.00,0.75
4426.00,0.75
4425.00,0.75
4424.00,0.75
4423.00,0.75
4422.00,0.75
4421.00,0.75
4420.00,0.75
4419.00,0.75
4418.00,0.75
4417.00,0.75
4416.00,0.75
4415.00,0.75
4414.00,0.75
4413.00,0.75
4412.00,0.75
4411.00,0.75
4410.00,0.75
4409.00,0.75
4408.00,0.76
4407.00,0.76
4406.00,0.76
4405.00,0.76
4404.00,0.76
4403.00,0.76
4402.00,0.76
4401.00,0.76
4400.00,0.76
4399.00,0.76
4398.00,0.76
4397.00,0.76
4396.00,0.77
4395.00,0.77
4394.00,0.77
4393.00,0.77
4392.00,0.77
4391.00,0.77
4390.00,0.77
4389.00,0.77
4388.00,0.77
4387.00,0.77
4386.00,0.77
4385.00,0.77
4384.00,0.77
4383.00,0.77
4382.00,0.77
4381.00,0.77
4380.00,0.77
4379.00,0.77
4378.00,0.77
4377.00,0.77
4376.00,0.77
4375.00,0.77
4374.00,0.77
4373.00,0.77
4372.00,0.77
4371.00,0.77
4370.00,0.77
4369.00,0.77
4368.00,0.77
4367.00,0.77
4366.00,0.77
4365.00,0.77
4364.00,0.77
4363.00,0.77
4362.00,0.77
4361.00,0.77
4360.00,0.77
4359.00,0.77
4358.00,0.77
4357.00,0.77
4356.00,0.77
4355.00,0.77
4354.00,0.78
4353.00,0.78
4352.00,0.78
4351.00,0.78
4350.00,0.78
4349.00,0.78
4348.00,0.78
4347.00,0.78
4346.00,0.78
4345.00,0.78
4344.00,0.78
4343.00,0.78
4342.00,0.78
4341.00,0.78
4340.00,0.78
4339.00,0.78
4338.00,0.78
4337.00,0.78
4336.00,0.78
4335.00,0.78
4334.00,0.78
4333.00,0.78
4332.00,0.78
4331.00,0.78
4330.00,0.78
4329.00,0.78
4328.00,0.78
4327.00,0.78
4326.00,0.78
4325.00,0.78
4324.00,0.78
4323.00,0.78
4322.00,0.78
4321.00,0.78
4320.00,0.78
4319.00,0.78
4318.00,0.78
4317.00,0.78
4316.00,0.79
4315.00,0.79
4314.00,0.79
4313.00,0.79
4312.00,0.79
4311.00,0.79
4310.00,0.79
4309.00,0.79
4308.00,0.79
4307.00,0.79
4306.00,0.79
4305.00,0.79
4304.00,0.79
4303.00,0.79
4302.00,0.79
4301.00,0.79
4300.00,0.79
4299.00,0.79
4298.00,0.80
4297.00,0.80
4296.00,0.80
4295.00,0.80
4294.00,0.80
4293.00,0.80
4292.00,0.80
4291.00,0.80
4290.00,0.80
4289.00,0.80
4288.00,0.80
4287.00,0.80
4286.00,0.80
4285.00,0.80
4284.00,0.81
4283.00,0.81
4282.00,0.81
4281.00,0.81
4280.00,0.81
4279.00,0.81
4278.00,0.81
4277.00,0.81
4276.00,0.81
4275.00,0.81
4274.00,0.81
4273.00,0.81
4272.00,0.81
4271.00,0.81
4270.00,0.81
4269.00,0.81
4268.00,0.81
4267.00,0.81
4266.00,0.81
4265.00,0.81
4264.00,0.81
4263.00,0.81
4262.00,0.81
4261.00,0.81
4260.00,0.81
4259.00,0.81
4258.00,0.81
4257.00,0.81
4256.00,0.81
4255.00,0.80
4254.00,0.80
4253.00,0.80
4252.00,0.80
4251.00,0.80
4250.00,0.80
4249.00,0.80
4248.00,0.80
4247.00,0.80
4246.00,0.80
4245.00,0.80
4244.00,0.80
4243.00,0.80
4242.00,0.80
4241.00,0.81
4240.00,0.81
4239.00,0.81
4238.00,0.81
4237.00,0.81
4236.00,0.81
4235.00,0.81
4234.00,0.81
4233.00,0.81
4232.00,0.81
4231.00,0.81
4230.00,0.81
4229.00,0.81
4228.00,0.82
4227.00,0.82
4226.00,0.82
4225.00,0.82
4224.00,0.82
4223.00,0.82
4222.00,0.82
4221.00,0.82
4220.00,0.82
4219.00,0.82
4218.00,0.82
4217.00,0.82
4216.00,0.82
4215.00,0.82
4214.00,0.82
4213.00,0.82
4212.00,0.82
4211.00,0.82
4210.00,0.82
4209.00,0.82
4208.00,0.82
4207.00,0.82
4206.00,0.82
4205.00,0.82
4204.00,0.82
4203.00,0.82
4202.00,0.82
4201.00,0.82
4200.00,0.82
4199.00,0.82
4198.00,0.82
4197.00,0.82
4196.00,0.82
4195.00,0.82
4194.00,0.82
4193.00,0.82
4192.00,0.83
4191.00,0.83
4190.00,0.83
4189.00,0.83
4188.00,0.83
4187.00,0.83
4186.00,0.83
4185.00,0.83
4184.00,0.83
4183.00,0.83
4182.00,0.83
4181.00,0.83
4180.00,0.83
4179.00,0.83
4178.00,0.83
4177.00,0.83
4176.00,0.83
4175.00,0.83
4174.00,0.83
4173.00,0.83
4172.00,0.83
4171.00,0.83
4170.00,0.83
4169.00,0.83
4168.00,0.83
4167.00,0.83
4166.00,0.83
4165.00,0.83
4164.00,0.83
4163.00,0.83
4162.00,0.83
4161.00,0.83
4160.00,0.83
4159.00,0.83
4158.00,0.83
4157.00,0.83
4156.00,0.83
4155.00,0.83
4154.00,0.83
4153.00,0.83
4152.00,0.83
4151.00,0.83
4150.00,0.83
4149.00,0.83
4148.00,0.83
4147.00,0.83
4146.00,0.84
4145.00,0.84
4144.00,0.84
4143.00,0.84
4142.00,0.84
4141.00,0.84
4140.00,0.84
4139.00,0.84
4138.00,0.84
4137.00,0.84
4136.00,0.84
4135.00,0.84
4134.00,0.84
4133.00,0.84
4132.00,0.84
4131.00,0.84
4130.00,0.84
4129.00,0.84
4128.00,0.84
4127.00,0.84
4126.00,0.84
4125.00,0.84
4124.00,0.84
4123.00,0.84
4122.00,0.84
4121.00,0.84
4120.00,0.85
4119.00,0.85
4118.00,0.85
4117.00,0.85
4116.00,0.85
4115.00,0.85
4114.00,0.85
4113.00,0.85
4112.00,0.85
4111.00,0.85
4110.00,0.85
4109.00,0.85
4108.00,0.85
4107.00,0.85
4106.00,0.85
4105.00,0.84
4104.00,0.84
4103.00,0.84
4102.00,0.84
4101.00,0.84
4100.00,0.84
4099.00,0.84
4098.00,0.84
4097.00,0.84
4096.00,0.84
4095.00,0.84
4094.00,0.84
4093.00,0.84
4092.00,0.84
4091.00,0.84
4090.00,0.84
4089.00,0.84
4088.00,0.84
4087.00,0.84
4086.00,0.84
4085.00,0.84
4084.00,0.84
4083.00,0.85
4082.00,0.85
4081.00,0.85
4080.00,0.85
4079.00,0.85
4078.00,0.85
4077.00,0.85
4076.00,0.85
4075.00,0.85
4074.00,0.85
4073.00,0.85
4072.00,0.85
4071.00,0.85
4070.00,0.85
4069.00,0.86
4068.00,0.86
4067.00,0.86
4066.00,0.86
4065.00,0.86
4064.00,0.86
4063.00,0.86
4062.00,0.86
4061.00,0.86
4060.00,0.86
4059.00,0.86
4058.00,0.86
4057.00,0.86
4056.00,0.86
4055.00,0.86
4054.00,0.86
4053.00,0.86
4052.00,0.86
4051.00,0.86
4050.00,0.86
4049.00,0.86
4048.00,0.86
4047.00,0.86
4046.00,0.86
4045.00,0.86
4044.00,0.86
4043.00,0.86
4042.00,0.86
4041.00,0.86
4040.00,0.86
4039.00,0.86
4038.00,0.86
4037.00,0.86
4036.00,0.86
4035.00,0.86
4034.00,0.86
4033.00,0.86
4032.00,0.86
4031.00,0.86
4030.00,0.86
4029.00,0.86
4028.00,0.87
4027.00,0.87
4026.00,0.87
4025.00,0.87
4024.00,0.87
4023.00,0.87
4022.00,0.87
4021.00,0.87
4020.00,0.87
4019.00,0.87
4018.00,0.87
4017.00,0.87
4016.00,0.87
4015.00,0.87
4014.00,0.87
4013.00,0.87
4012.00,0.87
4011.00,0.87
4010.00,0.87
4009.00,0.87
4008.00,0.87
4007.00,0.87
4006.00,0.87
4005.00,0.87
4004.00,0.87
4003.00,0.87
4002.00,0.87
4001.00,0.87
4000.00,0.87
