创建为新数据集,样品 694 用户 Administrator 日期 星期四, 七月 19 2018
cm-1,%T
10000.00,0.90
9999.00,0.90
9998.00,0.90
9997.00,0.90
9996.00,0.90
9995.00,0.90
9994.00,0.91
9993.00,0.91
9992.00,0.91
9991.00,0.91
9990.00,0.91
9989.00,0.91
9988.00,0.91
9987.00,0.91
9986.00,0.91
9985.00,0.91
9984.00,0.91
9983.00,0.91
9982.00,0.91
9981.00,0.91
9980.00,0.91
9979.00,0.90
9978.00,0.90
9977.00,0.90
9976.00,0.90
9975.00,0.90
9974.00,0.90
9973.00,0.90
9972.00,0.90
9971.00,0.89
9970.00,0.89
9969.00,0.89
9968.00,0.89
9967.00,0.88
9966.00,0.88
9965.00,0.88
9964.00,0.87
9963.00,0.87
9962.00,0.87
9961.00,0.87
9960.00,0.87
9959.00,0.87
9958.00,0.86
9957.00,0.86
9956.00,0.86
9955.00,0.86
9954.00,0.86
9953.00,0.86
9952.00,0.87
9951.00,0.87
9950.00,0.87
9949.00,0.87
9948.00,0.87
9947.00,0.87
9946.00,0.87
9945.00,0.87
9944.00,0.87
9943.00,0.87
9942.00,0.87
9941.00,0.87
9940.00,0.87
9939.00,0.87
9938.00,0.87
9937.00,0.87
9936.00,0.87
9935.00,0.87
9934.00,0.87
9933.00,0.86
9932.00,0.86
9931.00,0.86
9930.00,0.86
9929.00,0.86
9928.00,0.87
9927.00,0.87
9926.00,0.87
9925.00,0.87
9924.00,0.87
9923.00,0.87
9922.00,0.87
9921.00,0.87
9920.00,0.87
9919.00,0.87
9918.00,0.87
9917.00,0.87
9916.00,0.87
9915.00,0.87
9914.00,0.87
9913.00,0.87
9912.00,0.87
9911.00,0.87
9910.00,0.87
9909.00,0.87
9908.00,0.87
9907.00,0.87
9906.00,0.87
9905.00,0.88
9904.00,0.88
9903.00,0.88
9902.00,0.88
9901.00,0.88
9900.00,0.88
9899.00,0.88
9898.00,0.88
9897.00,0.88
9896.00,0.88
9895.00,0.88
9894.00,0.88
9893.00,0.88
9892.00,0.88
9891.00,0.88
9890.00,0.87
9889.00,0.87
9888.00,0.87
9887.00,0.87
9886.00,0.87
9885.00,0.87
9884.00,0.87
9883.00,0.87
9882.00,0.87
9881.00,0.87
9880.00,0.87
9879.00,0.87
9878.00,0.87
9877.00,0.87
9876.00,0.87
9875.00,0.87
9874.00,0.87
9873.00,0.87
9872.00,0.87
9871.00,0.88
9870.00,0.88
9869.00,0.88
9868.00,0.88
9867.00,0.88
9866.00,0.88
9865.00,0.88
9864.00,0.88
9863.00,0.88
9862.00,0.88
9861.00,0.88
9860.00,0.88
9859.00,0.88
9858.00,0.88
9857.00,0.88
9856.00,0.88
9855.00,0.88
9854.00,0.88
9853.00,0.88
9852.00,0.88
9851.00,0.88
9850.00,0.88
9849.00,0.88
9848.00,0.88
9847.00,0.88
9846.00,0.88
9845.00,0.88
9844.00,0.88
9843.00,0.88
9842.00,0.88
9841.00,0.88
9840.00,0.88
9839.00,0.88
9838.00,0.88
9837.00,0.88
9836.00,0.88
9835.00,0.89
9834.00,0.89
9833.00,0.89
9832.00,0.89
9831.00,0.89
9830.00,0.89
9829.00,0.89
9828.00,0.89
9827.00,0.89
9826.00,0.89
9825.00,0.88
9824.00,0.88
9823.00,0.88
9822.00,0.88
9821.00,0.88
9820.00,0.87
9819.00,0.87
9818.00,0.87
9817.00,0.87
9816.00,0.87
9815.00,0.87
9814.00,0.87
9813.00,0.87
9812.00,0.87
9811.00,0.87
9810.00,0.87
9809.00,0.87
9808.00,0.87
9807.00,0.87
9806.00,0.87
9805.00,0.88
9804.00,0.88
9803.00,0.88
9802.00,0.88
9801.00,0.88
9800.00,0.88
9799.00,0.88
9798.00,0.88
9797.00,0.88
9796.00,0.88
9795.00,0.88
9794.00,0.88
9793.00,0.88
9792.00,0.87
9791.00,0.87
9790.00,0.87
9789.00,0.87
9788.00,0.87
9787.00,0.87
9786.00,0.87
9785.00,0.87
9784.00,0.87
9783.00,0.86
9782.00,0.86
9781.00,0.86
9780.00,0.86
9779.00,0.86
9778.00,0.86
9777.00,0.85
9776.00,0.85
9775.00,0.85
9774.00,0.85
9773.00,0.85
9772.00,0.85
9771.00,0.85
9770.00,0.85
9769.00,0.86
9768.00,0.86
9767.00,0.86
9766.00,0.86
9765.00,0.86
9764.00,0.87
9763.00,0.87
9762.00,0.87
9761.00,0.88
9760.00,0.88
9759.00,0.89
9758.00,0.89
9757.00,0.89
9756.00,0.89
9755.00,0.90
9754.00,0.90
9753.00,0.90
9752.00,0.90
9751.00,0.90
9750.00,0.90
9749.00,0.90
9748.00,0.90
9747.00,0.90
9746.00,0.90
9745.00,0.90
9744.00,0.90
9743.00,0.89
9742.00,0.89
9741.00,0.89
9740.00,0.89
9739.00,0.88
9738.00,0.88
9737.00,0.88
9736.00,0.88
9735.00,0.88
9734.00,0.87
9733.00,0.87
9732.00,0.87
9731.00,0.87
9730.00,0.87
9729.00,0.87
9728.00,0.87
9727.00,0.87
9726.00,0.87
9725.00,0.87
9724.00,0.87
9723.00,0.87
9722.00,0.87
9721.00,0.87
9720.00,0.87
9719.00,0.87
9718.00,0.87
9717.00,0.88
9716.00,0.88
9715.00,0.88
9714.00,0.88
9713.00,0.88
9712.00,0.88
9711.00,0.88
9710.00,0.88
9709.00,0.88
9708.00,0.88
9707.00,0.89
9706.00,0.89
9705.00,0.89
9704.00,0.89
9703.00,0.89
9702.00,0.89
9701.00,0.89
9700.00,0.89
9699.00,0.90
9698.00,0.90
9697.00,0.90
9696.00,0.90
9695.00,0.90
9694.00,0.90
9693.00,0.89
9692.00,0.89
9691.00,0.89
9690.00,0.89
9689.00,0.88
9688.00,0.88
9687.00,0.88
9686.00,0.88
9685.00,0.87
9684.00,0.87
9683.00,0.87
9682.00,0.86
9681.00,0.86
9680.00,0.86
9679.00,0.86
9678.00,0.86
9677.00,0.86
9676.00,0.86
9675.00,0.86
9674.00,0.86
9673.00,0.86
9672.00,0.87
9671.00,0.87
9670.00,0.87
9669.00,0.87
9668.00,0.87
9667.00,0.87
9666.00,0.88
9665.00,0.88
9664.00,0.88
9663.00,0.88
9662.00,0.88
9661.00,0.88
9660.00,0.88
9659.00,0.88
9658.00,0.88
9657.00,0.88
9656.00,0.88
9655.00,0.88
9654.00,0.88
9653.00,0.88
9652.00,0.88
9651.00,0.88
9650.00,0.88
9649.00,0.87
9648.00,0.87
9647.00,0.87
9646.00,0.87
9645.00,0.86
9644.00,0.86
9643.00,0.86
9642.00,0.86
9641.00,0.86
9640.00,0.85
9639.00,0.85
9638.00,0.85
9637.00,0.85
9636.00,0.85
9635.00,0.85
9634.00,0.85
9633.00,0.85
9632.00,0.85
9631.00,0.85
9630.00,0.85
9629.00,0.85
9628.00,0.85
9627.00,0.85
9626.00,0.85
9625.00,0.85
9624.00,0.85
9623.00,0.85
9622.00,0.85
9621.00,0.85
9620.00,0.86
9619.00,0.86
9618.00,0.86
9617.00,0.86
9616.00,0.86
9615.00,0.87
9614.00,0.87
9613.00,0.87
9612.00,0.87
9611.00,0.87
9610.00,0.88
9609.00,0.88
9608.00,0.88
9607.00,0.88
9606.00,0.88
9605.00,0.88
9604.00,0.88
9603.00,0.88
9602.00,0.88
9601.00,0.88
9600.00,0.88
9599.00,0.88
9598.00,0.88
9597.00,0.88
9596.00,0.88
9595.00,0.88
9594.00,0.88
9593.00,0.88
9592.00,0.87
9591.00,0.87
9590.00,0.87
9589.00,0.87
9588.00,0.87
9587.00,0.87
9586.00,0.87
9585.00,0.87
9584.00,0.87
9583.00,0.87
9582.00,0.87
9581.00,0.87
9580.00,0.87
9579.00,0.87
9578.00,0.87
9577.00,0.87
9576.00,0.87
9575.00,0.88
9574.00,0.88
9573.00,0.88
9572.00,0.88
9571.00,0.88
9570.00,0.88
9569.00,0.88
9568.00,0.88
9567.00,0.88
9566.00,0.89
9565.00,0.89
9564.00,0.89
9563.00,0.88
9562.00,0.88
9561.00,0.88
9560.00,0.88
9559.00,0.88
9558.00,0.88
9557.00,0.88
9556.00,0.88
9555.00,0.88
9554.00,0.88
9553.00,0.88
9552.00,0.88
9551.00,0.88
9550.00,0.88
9549.00,0.87
9548.00,0.87
9547.00,0.87
9546.00,0.87
9545.00,0.87
9544.00,0.87
9543.00,0.87
9542.00,0.87
9541.00,0.87
9540.00,0.87
9539.00,0.87
9538.00,0.87
9537.00,0.87
9536.00,0.87
9535.00,0.87
9534.00,0.87
9533.00,0.86
9532.00,0.86
9531.00,0.86
9530.00,0.86
9529.00,0.86
9528.00,0.86
9527.00,0.85
9526.00,0.85
9525.00,0.85
9524.00,0.85
9523.00,0.85
9522.00,0.85
9521.00,0.85
9520.00,0.85
9519.00,0.85
9518.00,0.85
9517.00,0.85
9516.00,0.85
9515.00,0.85
9514.00,0.86
9513.00,0.86
9512.00,0.86
9511.00,0.86
9510.00,0.86
9509.00,0.87
9508.00,0.87
9507.00,0.87
9506.00,0.87
9505.00,0.88
9504.00,0.88
9503.00,0.88
9502.00,0.88
9501.00,0.88
9500.00,0.88
9499.00,0.88
9498.00,0.88
9497.00,0.88
9496.00,0.88
9495.00,0.88
9494.00,0.88
9493.00,0.88
9492.00,0.87
9491.00,0.87
9490.00,0.87
9489.00,0.87
9488.00,0.87
9487.00,0.87
9486.00,0.87
9485.00,0.87
9484.00,0.86
9483.00,0.86
9482.00,0.86
9481.00,0.87
9480.00,0.87
9479.00,0.87
9478.00,0.87
9477.00,0.87
9476.00,0.87
9475.00,0.87
9474.00,0.87
9473.00,0.88
9472.00,0.88
9471.00,0.88
9470.00,0.88
9469.00,0.88
9468.00,0.89
9467.00,0.89
9466.00,0.89
9465.00,0.89
9464.00,0.89
9463.00,0.89
9462.00,0.89
9461.00,0.89
9460.00,0.89
9459.00,0.89
9458.00,0.89
9457.00,0.89
9456.00,0.89
9455.00,0.89
9454.00,0.89
9453.00,0.89
9452.00,0.89
9451.00,0.89
9450.00,0.89
9449.00,0.89
9448.00,0.89
9447.00,0.89
9446.00,0.89
9445.00,0.88
9444.00,0.88
9443.00,0.88
9442.00,0.88
9441.00,0.88
9440.00,0.88
9439.00,0.88
9438.00,0.88
9437.00,0.88
9436.00,0.88
9435.00,0.88
9434.00,0.88
9433.00,0.88
9432.00,0.88
9431.00,0.88
9430.00,0.88
9429.00,0.88
9428.00,0.87
9427.00,0.87
9426.00,0.87
9425.00,0.87
9424.00,0.87
9423.00,0.87
9422.00,0.87
9421.00,0.87
9420.00,0.87
9419.00,0.87
9418.00,0.87
9417.00,0.88
9416.00,0.88
9415.00,0.88
9414.00,0.88
9413.00,0.88
9412.00,0.88
9411.00,0.88
9410.00,0.88
9409.00,0.88
9408.00,0.88
9407.00,0.88
9406.00,0.88
9405.00,0.88
9404.00,0.88
9403.00,0.88
9402.00,0.88
9401.00,0.88
9400.00,0.88
9399.00,0.88
9398.00,0.88
9397.00,0.88
9396.00,0.88
9395.00,0.88
9394.00,0.87
9393.00,0.87
9392.00,0.87
9391.00,0.87
9390.00,0.87
9389.00,0.87
9388.00,0.87
9387.00,0.87
9386.00,0.87
9385.00,0.87
9384.00,0.87
9383.00,0.86
9382.00,0.86
9381.00,0.86
9380.00,0.86
9379.00,0.86
9378.00,0.86
9377.00,0.86
9376.00,0.86
9375.00,0.86
9374.00,0.86
9373.00,0.87
9372.00,0.87
9371.00,0.87
9370.00,0.87
9369.00,0.87
9368.00,0.87
9367.00,0.87
9366.00,0.88
9365.00,0.88
9364.00,0.88
9363.00,0.88
9362.00,0.88
9361.00,0.88
9360.00,0.88
9359.00,0.88
9358.00,0.88
9357.00,0.88
9356.00,0.88
9355.00,0.88
9354.00,0.88
9353.00,0.88
9352.00,0.88
9351.00,0.88
9350.00,0.88
9349.00,0.88
9348.00,0.88
9347.00,0.88
9346.00,0.88
9345.00,0.88
9344.00,0.88
9343.00,0.89
9342.00,0.89
9341.00,0.89
9340.00,0.89
9339.00,0.89
9338.00,0.89
9337.00,0.89
9336.00,0.89
9335.00,0.89
9334.00,0.89
9333.00,0.89
9332.00,0.89
9331.00,0.89
9330.00,0.89
9329.00,0.89
9328.00,0.89
9327.00,0.89
9326.00,0.89
9325.00,0.89
9324.00,0.89
9323.00,0.89
9322.00,0.89
9321.00,0.89
9320.00,0.89
9319.00,0.89
9318.00,0.89
9317.00,0.89
9316.00,0.89
9315.00,0.89
9314.00,0.89
9313.00,0.89
9312.00,0.89
9311.00,0.89
9310.00,0.89
9309.00,0.88
9308.00,0.88
9307.00,0.88
9306.00,0.88
9305.00,0.88
9304.00,0.88
9303.00,0.88
9302.00,0.87
9301.00,0.87
9300.00,0.87
9299.00,0.87
9298.00,0.87
9297.00,0.87
9296.00,0.87
9295.00,0.86
9294.00,0.86
9293.00,0.86
9292.00,0.86
9291.00,0.86
9290.00,0.86
9289.00,0.86
9288.00,0.86
9287.00,0.86
9286.00,0.86
9285.00,0.86
9284.00,0.87
9283.00,0.87
9282.00,0.87
9281.00,0.87
9280.00,0.87
9279.00,0.87
9278.00,0.87
9277.00,0.87
9276.00,0.87
9275.00,0.87
9274.00,0.88
9273.00,0.88
9272.00,0.88
9271.00,0.88
9270.00,0.88
9269.00,0.88
9268.00,0.87
9267.00,0.87
9266.00,0.87
9265.00,0.87
9264.00,0.87
9263.00,0.87
9262.00,0.87
9261.00,0.87
9260.00,0.87
9259.00,0.86
9258.00,0.86
9257.00,0.86
9256.00,0.86
9255.00,0.86
9254.00,0.86
9253.00,0.86
9252.00,0.86
9251.00,0.86
9250.00,0.86
9249.00,0.86
9248.00,0.86
9247.00,0.86
9246.00,0.86
9245.00,0.86
9244.00,0.86
9243.00,0.86
9242.00,0.86
9241.00,0.86
9240.00,0.86
9239.00,0.86
9238.00,0.87
9237.00,0.87
9236.00,0.87
9235.00,0.87
9234.00,0.87
9233.00,0.87
9232.00,0.87
9231.00,0.88
9230.00,0.88
9229.00,0.88
9228.00,0.88
9227.00,0.88
9226.00,0.88
9225.00,0.88
9224.00,0.88
9223.00,0.88
9222.00,0.88
9221.00,0.88
9220.00,0.88
9219.00,0.88
9218.00,0.88
9217.00,0.88
9216.00,0.88
9215.00,0.88
9214.00,0.88
9213.00,0.88
9212.00,0.88
9211.00,0.89
9210.00,0.89
9209.00,0.89
9208.00,0.89
9207.00,0.89
9206.00,0.89
9205.00,0.89
9204.00,0.89
9203.00,0.89
9202.00,0.89
9201.00,0.89
9200.00,0.89
9199.00,0.89
9198.00,0.89
9197.00,0.89
9196.00,0.89
9195.00,0.89
9194.00,0.89
9193.00,0.90
9192.00,0.90
9191.00,0.90
9190.00,0.90
9189.00,0.90
9188.00,0.90
9187.00,0.90
9186.00,0.90
9185.00,0.90
9184.00,0.90
9183.00,0.90
9182.00,0.89
9181.00,0.89
9180.00,0.89
9179.00,0.89
9178.00,0.89
9177.00,0.89
9176.00,0.89
9175.00,0.89
9174.00,0.89
9173.00,0.89
9172.00,0.89
9171.00,0.89
9170.00,0.89
9169.00,0.89
9168.00,0.89
9167.00,0.89
9166.00,0.89
9165.00,0.89
9164.00,0.89
9163.00,0.89
9162.00,0.89
9161.00,0.89
9160.00,0.89
9159.00,0.89
9158.00,0.89
9157.00,0.89
9156.00,0.89
9155.00,0.89
9154.00,0.89
9153.00,0.89
9152.00,0.89
9151.00,0.89
9150.00,0.89
9149.00,0.89
9148.00,0.89
9147.00,0.89
9146.00,0.89
9145.00,0.89
9144.00,0.89
9143.00,0.88
9142.00,0.88
9141.00,0.88
9140.00,0.88
9139.00,0.88
9138.00,0.88
9137.00,0.87
9136.00,0.87
9135.00,0.87
9134.00,0.87
9133.00,0.87
9132.00,0.87
9131.00,0.87
9130.00,0.87
9129.00,0.87
9128.00,0.87
9127.00,0.87
9126.00,0.87
9125.00,0.87
9124.00,0.87
9123.00,0.87
9122.00,0.87
9121.00,0.87
9120.00,0.87
9119.00,0.87
9118.00,0.87
9117.00,0.88
9116.00,0.88
9115.00,0.88
9114.00,0.88
9113.00,0.88
9112.00,0.88
9111.00,0.88
9110.00,0.88
9109.00,0.88
9108.00,0.88
9107.00,0.88
9106.00,0.88
9105.00,0.88
9104.00,0.88
9103.00,0.89
9102.00,0.89
9101.00,0.89
9100.00,0.89
9099.00,0.89
9098.00,0.89
9097.00,0.89
9096.00,0.89
9095.00,0.89
9094.00,0.89
9093.00,0.89
9092.00,0.89
9091.00,0.89
9090.00,0.90
9089.00,0.90
9088.00,0.90
9087.00,0.90
9086.00,0.90
9085.00,0.89
9084.00,0.89
9083.00,0.89
9082.00,0.89
9081.00,0.89
9080.00,0.89
9079.00,0.89
9078.00,0.89
9077.00,0.89
9076.00,0.89
9075.00,0.89
9074.00,0.89
9073.00,0.89
9072.00,0.89
9071.00,0.89
9070.00,0.89
9069.00,0.89
9068.00,0.89
9067.00,0.89
9066.00,0.89
9065.00,0.89
9064.00,0.89
9063.00,0.89
9062.00,0.89
9061.00,0.89
9060.00,0.89
9059.00,0.89
9058.00,0.89
9057.00,0.89
9056.00,0.89
9055.00,0.89
9054.00,0.89
9053.00,0.89
9052.00,0.89
9051.00,0.88
9050.00,0.88
9049.00,0.88
9048.00,0.88
9047.00,0.88
9046.00,0.88
9045.00,0.88
9044.00,0.88
9043.00,0.89
9042.00,0.89
9041.00,0.89
9040.00,0.89
9039.00,0.89
9038.00,0.89
9037.00,0.89
9036.00,0.89
9035.00,0.89
9034.00,0.89
9033.00,0.90
9032.00,0.90
9031.00,0.90
9030.00,0.90
9029.00,0.90
9028.00,0.90
9027.00,0.90
9026.00,0.90
9025.00,0.89
9024.00,0.89
9023.00,0.89
9022.00,0.89
9021.00,0.89
9020.00,0.89
9019.00,0.89
9018.00,0.89
9017.00,0.89
9016.00,0.89
9015.00,0.89
9014.00,0.89
9013.00,0.89
9012.00,0.89
9011.00,0.89
9010.00,0.89
9009.00,0.89
9008.00,0.89
9007.00,0.89
9006.00,0.89
9005.00,0.89
9004.00,0.89
9003.00,0.89
9002.00,0.89
9001.00,0.89
9000.00,0.89
8999.00,0.89
8998.00,0.89
8997.00,0.89
8996.00,0.89
8995.00,0.89
8994.00,0.89
8993.00,0.89
8992.00,0.89
8991.00,0.89
8990.00,0.89
8989.00,0.89
8988.00,0.89
8987.00,0.88
8986.00,0.88
8985.00,0.88
8984.00,0.88
8983.00,0.88
8982.00,0.88
8981.00,0.88
8980.00,0.87
8979.00,0.87
8978.00,0.87
8977.00,0.87
8976.00,0.87
8975.00,0.87
8974.00,0.87
8973.00,0.87
8972.00,0.88
8971.00,0.88
8970.00,0.88
8969.00,0.88
8968.00,0.88
8967.00,0.88
8966.00,0.88
8965.00,0.89
8964.00,0.89
8963.00,0.89
8962.00,0.89
8961.00,0.89
8960.00,0.89
8959.00,0.90
8958.00,0.90
8957.00,0.90
8956.00,0.90
8955.00,0.90
8954.00,0.90
8953.00,0.90
8952.00,0.90
8951.00,0.90
8950.00,0.90
8949.00,0.90
8948.00,0.90
8947.00,0.90
8946.00,0.90
8945.00,0.90
8944.00,0.90
8943.00,0.90
8942.00,0.90
8941.00,0.90
8940.00,0.90
8939.00,0.89
8938.00,0.89
8937.00,0.89
8936.00,0.89
8935.00,0.89
8934.00,0.89
8933.00,0.89
8932.00,0.88
8931.00,0.88
8930.00,0.88
8929.00,0.88
8928.00,0.88
8927.00,0.88
8926.00,0.88
8925.00,0.88
8924.00,0.88
8923.00,0.88
8922.00,0.89
8921.00,0.89
8920.00,0.89
8919.00,0.89
8918.00,0.89
8917.00,0.89
8916.00,0.89
8915.00,0.89
8914.00,0.89
8913.00,0.89
8912.00,0.89
8911.00,0.89
8910.00,0.89
8909.00,0.88
8908.00,0.88
8907.00,0.88
8906.00,0.88
8905.00,0.88
8904.00,0.89
8903.00,0.89
8902.00,0.89
8901.00,0.89
8900.00,0.89
8899.00,0.89
8898.00,0.89
8897.00,0.89
8896.00,0.90
8895.00,0.90
8894.00,0.90
8893.00,0.90
8892.00,0.90
8891.00,0.90
8890.00,0.90
8889.00,0.90
8888.00,0.90
8887.00,0.90
8886.00,0.90
8885.00,0.90
8884.00,0.90
8883.00,0.90
8882.00,0.90
8881.00,0.90
8880.00,0.90
8879.00,0.90
8878.00,0.90
8877.00,0.90
8876.00,0.90
8875.00,0.90
8874.00,0.90
8873.00,0.90
8872.00,0.89
8871.00,0.89
8870.00,0.89
8869.00,0.89
8868.00,0.89
8867.00,0.89
8866.00,0.89
8865.00,0.89
8864.00,0.89
8863.00,0.88
8862.00,0.88
8861.00,0.88
8860.00,0.88
8859.00,0.88
8858.00,0.88
8857.00,0.88
8856.00,0.88
8855.00,0.88
8854.00,0.88
8853.00,0.88
8852.00,0.88
8851.00,0.88
8850.00,0.88
8849.00,0.88
8848.00,0.88
8847.00,0.88
8846.00,0.88
8845.00,0.88
8844.00,0.88
8843.00,0.88
8842.00,0.87
8841.00,0.87
8840.00,0.87
8839.00,0.87
8838.00,0.87
8837.00,0.87
8836.00,0.87
8835.00,0.87
8834.00,0.87
8833.00,0.87
8832.00,0.87
8831.00,0.87
8830.00,0.88
8829.00,0.88
8828.00,0.88
8827.00,0.88
8826.00,0.88
8825.00,0.88
8824.00,0.88
8823.00,0.88
8822.00,0.88
8821.00,0.88
8820.00,0.88
8819.00,0.88
8818.00,0.88
8817.00,0.88
8816.00,0.88
8815.00,0.88
8814.00,0.88
8813.00,0.88
8812.00,0.88
8811.00,0.88
8810.00,0.88
8809.00,0.88
8808.00,0.88
8807.00,0.88
8806.00,0.88
8805.00,0.88
8804.00,0.88
8803.00,0.88
8802.00,0.88
8801.00,0.88
8800.00,0.88
8799.00,0.88
8798.00,0.88
8797.00,0.88
8796.00,0.88
8795.00,0.88
8794.00,0.88
8793.00,0.88
8792.00,0.88
8791.00,0.88
8790.00,0.88
8789.00,0.88
8788.00,0.88
8787.00,0.88
8786.00,0.88
8785.00,0.88
8784.00,0.88
8783.00,0.88
8782.00,0.88
8781.00,0.87
8780.00,0.87
8779.00,0.87
8778.00,0.87
8777.00,0.87
8776.00,0.87
8775.00,0.87
8774.00,0.86
8773.00,0.86
8772.00,0.86
8771.00,0.86
8770.00,0.86
8769.00,0.85
8768.00,0.85
8767.00,0.85
8766.00,0.85
8765.00,0.85
8764.00,0.85
8763.00,0.85
8762.00,0.85
8761.00,0.85
8760.00,0.85
8759.00,0.85
8758.00,0.85
8757.00,0.85
8756.00,0.85
8755.00,0.86
8754.00,0.86
8753.00,0.86
8752.00,0.86
8751.00,0.86
8750.00,0.86
8749.00,0.86
8748.00,0.86
8747.00,0.86
8746.00,0.86
8745.00,0.86
8744.00,0.86
8743.00,0.86
8742.00,0.86
8741.00,0.86
8740.00,0.86
8739.00,0.85
8738.00,0.85
8737.00,0.85
8736.00,0.85
8735.00,0.85
8734.00,0.85
8733.00,0.85
8732.00,0.85
8731.00,0.85
8730.00,0.85
8729.00,0.85
8728.00,0.85
8727.00,0.85
8726.00,0.85
8725.00,0.85
8724.00,0.85
8723.00,0.85
8722.00,0.85
8721.00,0.85
8720.00,0.85
8719.00,0.85
8718.00,0.85
8717.00,0.85
8716.00,0.85
8715.00,0.85
8714.00,0.85
8713.00,0.85
8712.00,0.84
8711.00,0.84
8710.00,0.84
8709.00,0.84
8708.00,0.85
8707.00,0.85
8706.00,0.85
8705.00,0.85
8704.00,0.85
8703.00,0.85
8702.00,0.85
8701.00,0.85
8700.00,0.85
8699.00,0.85
8698.00,0.85
8697.00,0.85
8696.00,0.85
8695.00,0.85
8694.00,0.85
8693.00,0.85
8692.00,0.85
8691.00,0.85
8690.00,0.85
8689.00,0.84
8688.00,0.84
8687.00,0.84
8686.00,0.84
8685.00,0.84
8684.00,0.84
8683.00,0.84
8682.00,0.84
8681.00,0.84
8680.00,0.84
8679.00,0.84
8678.00,0.84
8677.00,0.84
8676.00,0.84
8675.00,0.84
8674.00,0.84
8673.00,0.84
8672.00,0.84
8671.00,0.84
8670.00,0.84
8669.00,0.84
8668.00,0.84
8667.00,0.84
8666.00,0.84
8665.00,0.84
8664.00,0.84
8663.00,0.84
8662.00,0.84
8661.00,0.84
8660.00,0.84
8659.00,0.84
8658.00,0.84
8657.00,0.84
8656.00,0.84
8655.00,0.84
8654.00,0.84
8653.00,0.84
8652.00,0.84
8651.00,0.84
8650.00,0.84
8649.00,0.84
8648.00,0.84
8647.00,0.84
8646.00,0.84
8645.00,0.84
8644.00,0.84
8643.00,0.84
8642.00,0.83
8641.00,0.83
8640.00,0.83
8639.00,0.83
8638.00,0.83
8637.00,0.83
8636.00,0.83
8635.00,0.83
8634.00,0.82
8633.00,0.82
8632.00,0.82
8631.00,0.82
8630.00,0.82
8629.00,0.82
8628.00,0.82
8627.00,0.81
8626.00,0.81
8625.00,0.81
8624.00,0.81
8623.00,0.81
8622.00,0.81
8621.00,0.81
8620.00,0.81
8619.00,0.81
8618.00,0.81
8617.00,0.81
8616.00,0.81
8615.00,0.82
8614.00,0.82
8613.00,0.82
8612.00,0.82
8611.00,0.82
8610.00,0.82
8609.00,0.82
8608.00,0.82
8607.00,0.82
8606.00,0.82
8605.00,0.82
8604.00,0.82
8603.00,0.82
8602.00,0.82
8601.00,0.82
8600.00,0.82
8599.00,0.82
8598.00,0.82
8597.00,0.82
8596.00,0.82
8595.00,0.82
8594.00,0.82
8593.00,0.82
8592.00,0.82
8591.00,0.81
8590.00,0.81
8589.00,0.81
8588.00,0.81
8587.00,0.81
8586.00,0.81
8585.00,0.81
8584.00,0.81
8583.00,0.81
8582.00,0.81
8581.00,0.82
8580.00,0.82
8579.00,0.82
8578.00,0.82
8577.00,0.82
8576.00,0.82
8575.00,0.82
8574.00,0.82
8573.00,0.82
8572.00,0.82
8571.00,0.82
8570.00,0.82
8569.00,0.82
8568.00,0.82
8567.00,0.82
8566.00,0.82
8565.00,0.82
8564.00,0.82
8563.00,0.82
8562.00,0.82
8561.00,0.82
8560.00,0.82
8559.00,0.82
8558.00,0.82
8557.00,0.81
8556.00,0.81
8555.00,0.81
8554.00,0.81
8553.00,0.81
8552.00,0.81
8551.00,0.81
8550.00,0.81
8549.00,0.81
8548.00,0.81
8547.00,0.81
8546.00,0.81
8545.00,0.81
8544.00,0.81
8543.00,0.81
8542.00,0.81
8541.00,0.82
8540.00,0.82
8539.00,0.82
8538.00,0.82
8537.00,0.82
8536.00,0.81
8535.00,0.81
8534.00,0.81
8533.00,0.81
8532.00,0.81
8531.00,0.81
8530.00,0.81
8529.00,0.81
8528.00,0.81
8527.00,0.81
8526.00,0.80
8525.00,0.80
8524.00,0.80
8523.00,0.80
8522.00,0.80
8521.00,0.80
8520.00,0.80
8519.00,0.80
8518.00,0.80
8517.00,0.80
8516.00,0.80
8515.00,0.81
8514.00,0.81
8513.00,0.81
8512.00,0.81
8511.00,0.81
8510.00,0.81
8509.00,0.81
8508.00,0.81
8507.00,0.80
8506.00,0.80
8505.00,0.80
8504.00,0.80
8503.00,0.80
8502.00,0.80
8501.00,0.80
8500.00,0.80
8499.00,0.80
8498.00,0.80
8497.00,0.80
8496.00,0.80
8495.00,0.80
8494.00,0.80
8493.00,0.80
8492.00,0.80
8491.00,0.80
8490.00,0.80
8489.00,0.80
8488.00,0.80
8487.00,0.80
8486.00,0.80
8485.00,0.79
8484.00,0.79
8483.00,0.79
8482.00,0.79
8481.00,0.79
8480.00,0.79
8479.00,0.79
8478.00,0.79
8477.00,0.79
8476.00,0.79
8475.00,0.79
8474.00,0.79
8473.00,0.78
8472.00,0.78
8471.00,0.78
8470.00,0.78
8469.00,0.78
8468.00,0.78
8467.00,0.78
8466.00,0.78
8465.00,0.78
8464.00,0.77
8463.00,0.77
8462.00,0.77
8461.00,0.77
8460.00,0.77
8459.00,0.77
8458.00,0.77
8457.00,0.77
8456.00,0.77
8455.00,0.77
8454.00,0.77
8453.00,0.77
8452.00,0.77
8451.00,0.77
8450.00,0.77
8449.00,0.77
8448.00,0.77
8447.00,0.77
8446.00,0.77
8445.00,0.77
8444.00,0.77
8443.00,0.77
8442.00,0.77
8441.00,0.77
8440.00,0.77
8439.00,0.77
8438.00,0.77
8437.00,0.77
8436.00,0.77
8435.00,0.77
8434.00,0.77
8433.00,0.77
8432.00,0.77
8431.00,0.77
8430.00,0.77
8429.00,0.77
8428.00,0.77
8427.00,0.77
8426.00,0.77
8425.00,0.77
8424.00,0.77
8423.00,0.77
8422.00,0.77
8421.00,0.77
8420.00,0.77
8419.00,0.77
8418.00,0.78
8417.00,0.78
8416.00,0.78
8415.00,0.78
8414.00,0.78
8413.00,0.78
8412.00,0.78
8411.00,0.78
8410.00,0.78
8409.00,0.78
8408.00,0.78
8407.00,0.78
8406.00,0.78
8405.00,0.78
8404.00,0.78
8403.00,0.78
8402.00,0.78
8401.00,0.78
8400.00,0.78
8399.00,0.78
8398.00,0.78
8397.00,0.78
8396.00,0.78
8395.00,0.79
8394.00,0.79
8393.00,0.79
8392.00,0.79
8391.00,0.79
8390.00,0.79
8389.00,0.79
8388.00,0.79
8387.00,0.79
8386.00,0.79
8385.00,0.79
8384.00,0.79
8383.00,0.79
8382.00,0.79
8381.00,0.79
8380.00,0.79
8379.00,0.79
8378.00,0.79
8377.00,0.79
8376.00,0.79
8375.00,0.79
8374.00,0.79
8373.00,0.79
8372.00,0.79
8371.00,0.79
8370.00,0.79
8369.00,0.79
8368.00,0.79
8367.00,0.79
8366.00,0.79
8365.00,0.79
8364.00,0.79
8363.00,0.79
8362.00,0.79
8361.00,0.79
8360.00,0.79
8359.00,0.79
8358.00,0.79
8357.00,0.79
8356.00,0.79
8355.00,0.79
8354.00,0.79
8353.00,0.80
8352.00,0.80
8351.00,0.80
8350.00,0.80
8349.00,0.80
8348.00,0.80
8347.00,0.80
8346.00,0.80
8345.00,0.80
8344.00,0.80
8343.00,0.80
8342.00,0.80
8341.00,0.80
8340.00,0.80
8339.00,0.80
8338.00,0.80
8337.00,0.80
8336.00,0.80
8335.00,0.80
8334.00,0.80
8333.00,0.80
8332.00,0.80
8331.00,0.80
8330.00,0.80
8329.00,0.80
8328.00,0.81
8327.00,0.81
8326.00,0.81
8325.00,0.81
8324.00,0.81
8323.00,0.81
8322.00,0.81
8321.00,0.81
8320.00,0.81
8319.00,0.81
8318.00,0.81
8317.00,0.81
8316.00,0.81
8315.00,0.81
8314.00,0.81
8313.00,0.81
8312.00,0.81
8311.00,0.81
8310.00,0.81
8309.00,0.80
8308.00,0.80
8307.00,0.80
8306.00,0.80
8305.00,0.80
8304.00,0.80
8303.00,0.80
8302.00,0.80
8301.00,0.80
8300.00,0.80
8299.00,0.81
8298.00,0.81
8297.00,0.81
8296.00,0.81
8295.00,0.81
8294.00,0.81
8293.00,0.81
8292.00,0.81
8291.00,0.81
8290.00,0.81
8289.00,0.81
8288.00,0.81
8287.00,0.81
8286.00,0.81
8285.00,0.82
8284.00,0.82
8283.00,0.82
8282.00,0.82
8281.00,0.82
8280.00,0.82
8279.00,0.82
8278.00,0.82
8277.00,0.82
8276.00,0.82
8275.00,0.82
8274.00,0.82
8273.00,0.82
8272.00,0.82
8271.00,0.81
8270.00,0.81
8269.00,0.81
8268.00,0.81
8267.00,0.81
8266.00,0.81
8265.00,0.81
8264.00,0.81
8263.00,0.81
8262.00,0.81
8261.00,0.81
8260.00,0.81
8259.00,0.81
8258.00,0.81
8257.00,0.81
8256.00,0.81
8255.00,0.81
8254.00,0.81
8253.00,0.81
8252.00,0.81
8251.00,0.81
8250.00,0.81
8249.00,0.81
8248.00,0.81
8247.00,0.81
8246.00,0.81
8245.00,0.81
8244.00,0.81
8243.00,0.81
8242.00,0.81
8241.00,0.81
8240.00,0.81
8239.00,0.81
8238.00,0.81
8237.00,0.81
8236.00,0.81
8235.00,0.81
8234.00,0.81
8233.00,0.81
8232.00,0.81
8231.00,0.81
8230.00,0.81
8229.00,0.81
8228.00,0.81
8227.00,0.81
8226.00,0.82
8225.00,0.82
8224.00,0.82
8223.00,0.82
8222.00,0.82
8221.00,0.82
8220.00,0.82
8219.00,0.82
8218.00,0.82
8217.00,0.82
8216.00,0.82
8215.00,0.82
8214.00,0.82
8213.00,0.82
8212.00,0.82
8211.00,0.81
8210.00,0.81
8209.00,0.81
8208.00,0.81
8207.00,0.81
8206.00,0.81
8205.00,0.81
8204.00,0.82
8203.00,0.82
8202.00,0.82
8201.00,0.82
8200.00,0.82
8199.00,0.82
8198.00,0.82
8197.00,0.82
8196.00,0.82
8195.00,0.82
8194.00,0.82
8193.00,0.82
8192.00,0.82
8191.00,0.82
8190.00,0.83
8189.00,0.83
8188.00,0.83
8187.00,0.83
8186.00,0.83
8185.00,0.83
8184.00,0.83
8183.00,0.83
8182.00,0.83
8181.00,0.83
8180.00,0.83
8179.00,0.83
8178.00,0.83
8177.00,0.83
8176.00,0.83
8175.00,0.84
8174.00,0.84
8173.00,0.84
8172.00,0.84
8171.00,0.84
8170.00,0.84
8169.00,0.84
8168.00,0.84
8167.00,0.84
8166.00,0.84
8165.00,0.85
8164.00,0.85
8163.00,0.85
8162.00,0.85
8161.00,0.85
8160.00,0.85
8159.00,0.84
8158.00,0.84
8157.00,0.84
8156.00,0.84
8155.00,0.84
8154.00,0.84
8153.00,0.84
8152.00,0.84
8151.00,0.84
8150.00,0.84
8149.00,0.84
8148.00,0.84
8147.00,0.84
8146.00,0.84
8145.00,0.84
8144.00,0.84
8143.00,0.84
8142.00,0.84
8141.00,0.84
8140.00,0.84
8139.00,0.84
8138.00,0.84
8137.00,0.85
8136.00,0.85
8135.00,0.85
8134.00,0.85
8133.00,0.85
8132.00,0.85
8131.00,0.85
8130.00,0.85
8129.00,0.85
8128.00,0.85
8127.00,0.85
8126.00,0.85
8125.00,0.85
8124.00,0.85
8123.00,0.85
8122.00,0.85
8121.00,0.85
8120.00,0.85
8119.00,0.85
8118.00,0.85
8117.00,0.85
8116.00,0.85
8115.00,0.85
8114.00,0.85
8113.00,0.85
8112.00,0.85
8111.00,0.85
8110.00,0.85
8109.00,0.85
8108.00,0.85
8107.00,0.85
8106.00,0.85
8105.00,0.85
8104.00,0.85
8103.00,0.85
8102.00,0.85
8101.00,0.85
8100.00,0.85
8099.00,0.85
8098.00,0.85
8097.00,0.85
8096.00,0.85
8095.00,0.85
8094.00,0.85
8093.00,0.85
8092.00,0.85
8091.00,0.85
8090.00,0.85
8089.00,0.85
8088.00,0.85
8087.00,0.85
8086.00,0.86
8085.00,0.86
8084.00,0.86
8083.00,0.86
8082.00,0.86
8081.00,0.86
8080.00,0.86
8079.00,0.86
8078.00,0.86
8077.00,0.86
8076.00,0.86
8075.00,0.86
8074.00,0.86
8073.00,0.86
8072.00,0.86
8071.00,0.86
8070.00,0.86
8069.00,0.86
8068.00,0.87
8067.00,0.87
8066.00,0.87
8065.00,0.87
8064.00,0.87
8063.00,0.87
8062.00,0.87
8061.00,0.87
8060.00,0.87
8059.00,0.87
8058.00,0.87
8057.00,0.87
8056.00,0.87
8055.00,0.87
8054.00,0.87
8053.00,0.87
8052.00,0.87
8051.00,0.87
8050.00,0.87
8049.00,0.87
8048.00,0.87
8047.00,0.87
8046.00,0.87
8045.00,0.87
8044.00,0.87
8043.00,0.87
8042.00,0.87
8041.00,0.87
8040.00,0.87
8039.00,0.87
8038.00,0.87
8037.00,0.87
8036.00,0.87
8035.00,0.87
8034.00,0.87
8033.00,0.87
8032.00,0.87
8031.00,0.87
8030.00,0.87
8029.00,0.87
8028.00,0.87
8027.00,0.87
8026.00,0.87
8025.00,0.87
8024.00,0.87
8023.00,0.87
8022.00,0.87
8021.00,0.87
8020.00,0.87
8019.00,0.87
8018.00,0.87
8017.00,0.88
8016.00,0.88
8015.00,0.88
8014.00,0.88
8013.00,0.88
8012.00,0.88
8011.00,0.87
8010.00,0.87
8009.00,0.87
8008.00,0.87
8007.00,0.87
8006.00,0.87
8005.00,0.87
8004.00,0.87
8003.00,0.87
8002.00,0.87
8001.00,0.87
8000.00,0.87
7999.00,0.87
7998.00,0.87
7997.00,0.87
7996.00,0.87
7995.00,0.87
7994.00,0.87
7993.00,0.87
7992.00,0.87
7991.00,0.87
7990.00,0.87
7989.00,0.87
7988.00,0.87
7987.00,0.87
7986.00,0.87
7985.00,0.87
7984.00,0.87
7983.00,0.86
7982.00,0.86
7981.00,0.86
7980.00,0.86
7979.00,0.86
7978.00,0.86
7977.00,0.86
7976.00,0.86
7975.00,0.86
7974.00,0.86
7973.00,0.86
7972.00,0.86
7971.00,0.86
7970.00,0.86
7969.00,0.86
7968.00,0.86
7967.00,0.86
7966.00,0.86
7965.00,0.86
7964.00,0.86
7963.00,0.86
7962.00,0.86
7961.00,0.86
7960.00,0.86
7959.00,0.87
7958.00,0.87
7957.00,0.87
7956.00,0.87
7955.00,0.87
7954.00,0.87
7953.00,0.87
7952.00,0.87
7951.00,0.87
7950.00,0.87
7949.00,0.87
7948.00,0.87
7947.00,0.87
7946.00,0.87
7945.00,0.87
7944.00,0.87
7943.00,0.87
7942.00,0.87
7941.00,0.87
7940.00,0.87
7939.00,0.88
7938.00,0.88
7937.00,0.88
7936.00,0.88
7935.00,0.88
7934.00,0.88
7933.00,0.88
7932.00,0.89
7931.00,0.89
7930.00,0.89
7929.00,0.89
7928.00,0.89
7927.00,0.89
7926.00,0.89
7925.00,0.89
7924.00,0.89
7923.00,0.89
7922.00,0.89
7921.00,0.89
7920.00,0.89
7919.00,0.89
7918.00,0.89
7917.00,0.89
7916.00,0.89
7915.00,0.89
7914.00,0.89
7913.00,0.89
7912.00,0.89
7911.00,0.89
7910.00,0.89
7909.00,0.89
7908.00,0.89
7907.00,0.89
7906.00,0.89
7905.00,0.89
7904.00,0.89
7903.00,0.89
7902.00,0.89
7901.00,0.89
7900.00,0.89
7899.00,0.89
7898.00,0.89
7897.00,0.89
7896.00,0.88
7895.00,0.88
7894.00,0.88
7893.00,0.89
7892.00,0.89
7891.00,0.89
7890.00,0.89
7889.00,0.89
7888.00,0.89
7887.00,0.89
7886.00,0.89
7885.00,0.89
7884.00,0.89
7883.00,0.89
7882.00,0.89
7881.00,0.89
7880.00,0.89
7879.00,0.89
7878.00,0.89
7877.00,0.89
7876.00,0.89
7875.00,0.89
7874.00,0.89
7873.00,0.89
7872.00,0.89
7871.00,0.89
7870.00,0.89
7869.00,0.89
7868.00,0.89
7867.00,0.89
7866.00,0.89
7865.00,0.89
7864.00,0.89
7863.00,0.89
7862.00,0.89
7861.00,0.89
7860.00,0.89
7859.00,0.89
7858.00,0.89
7857.00,0.89
7856.00,0.89
7855.00,0.89
7854.00,0.89
7853.00,0.89
7852.00,0.89
7851.00,0.89
7850.00,0.89
7849.00,0.89
7848.00,0.89
7847.00,0.89
7846.00,0.89
7845.00,0.89
7844.00,0.89
7843.00,0.89
7842.00,0.89
7841.00,0.89
7840.00,0.89
7839.00,0.89
7838.00,0.89
7837.00,0.89
7836.00,0.89
7835.00,0.89
7834.00,0.89
7833.00,0.89
7832.00,0.89
7831.00,0.89
7830.00,0.89
7829.00,0.89
7828.00,0.89
7827.00,0.89
7826.00,0.89
7825.00,0.90
7824.00,0.90
7823.00,0.90
7822.00,0.90
7821.00,0.90
7820.00,0.90
7819.00,0.90
7818.00,0.90
7817.00,0.90
7816.00,0.90
7815.00,0.90
7814.00,0.90
7813.00,0.90
7812.00,0.90
7811.00,0.90
7810.00,0.90
7809.00,0.90
7808.00,0.90
7807.00,0.90
7806.00,0.90
7805.00,0.90
7804.00,0.90
7803.00,0.90
7802.00,0.90
7801.00,0.90
7800.00,0.90
7799.00,0.90
7798.00,0.90
7797.00,0.90
7796.00,0.90
7795.00,0.90
7794.00,0.90
7793.00,0.90
7792.00,0.89
7791.00,0.89
7790.00,0.89
7789.00,0.89
7788.00,0.89
7787.00,0.89
7786.00,0.89
7785.00,0.89
7784.00,0.89
7783.00,0.89
7782.00,0.89
7781.00,0.89
7780.00,0.89
7779.00,0.89
7778.00,0.89
7777.00,0.89
7776.00,0.89
7775.00,0.89
7774.00,0.89
7773.00,0.89
7772.00,0.89
7771.00,0.89
7770.00,0.89
7769.00,0.90
7768.00,0.90
7767.00,0.90
7766.00,0.90
7765.00,0.90
7764.00,0.90
7763.00,0.90
7762.00,0.90
7761.00,0.90
7760.00,0.90
7759.00,0.90
7758.00,0.90
7757.00,0.90
7756.00,0.90
7755.00,0.90
7754.00,0.90
7753.00,0.90
7752.00,0.90
7751.00,0.90
7750.00,0.90
7749.00,0.90
7748.00,0.90
7747.00,0.90
7746.00,0.90
7745.00,0.90
7744.00,0.90
7743.00,0.90
7742.00,0.90
7741.00,0.90
7740.00,0.90
7739.00,0.90
7738.00,0.90
7737.00,0.91
7736.00,0.91
7735.00,0.91
7734.00,0.91
7733.00,0.91
7732.00,0.91
7731.00,0.90
7730.00,0.90
7729.00,0.90
7728.00,0.90
7727.00,0.90
7726.00,0.90
7725.00,0.90
7724.00,0.90
7723.00,0.90
7722.00,0.90
7721.00,0.90
7720.00,0.90
7719.00,0.90
7718.00,0.90
7717.00,0.90
7716.00,0.90
7715.00,0.90
7714.00,0.90
7713.00,0.90
7712.00,0.90
7711.00,0.90
7710.00,0.90
7709.00,0.90
7708.00,0.90
7707.00,0.90
7706.00,0.90
7705.00,0.89
7704.00,0.89
7703.00,0.89
7702.00,0.89
7701.00,0.89
7700.00,0.89
7699.00,0.89
7698.00,0.90
7697.00,0.90
7696.00,0.90
7695.00,0.90
7694.00,0.90
7693.00,0.90
7692.00,0.90
7691.00,0.90
7690.00,0.90
7689.00,0.90
7688.00,0.90
7687.00,0.90
7686.00,0.90
7685.00,0.90
7684.00,0.90
7683.00,0.90
7682.00,0.90
7681.00,0.90
7680.00,0.90
7679.00,0.90
7678.00,0.90
7677.00,0.90
7676.00,0.90
7675.00,0.90
7674.00,0.90
7673.00,0.90
7672.00,0.90
7671.00,0.90
7670.00,0.90
7669.00,0.90
7668.00,0.90
7667.00,0.90
7666.00,0.90
7665.00,0.90
7664.00,0.90
7663.00,0.90
7662.00,0.90
7661.00,0.90
7660.00,0.90
7659.00,0.90
7658.00,0.90
7657.00,0.90
7656.00,0.90
7655.00,0.90
7654.00,0.90
7653.00,0.90
7652.00,0.90
7651.00,0.90
7650.00,0.90
7649.00,0.90
7648.00,0.90
7647.00,0.90
7646.00,0.90
7645.00,0.90
7644.00,0.90
7643.00,0.90
7642.00,0.90
7641.00,0.90
7640.00,0.90
7639.00,0.90
7638.00,0.90
7637.00,0.90
7636.00,0.90
7635.00,0.90
7634.00,0.90
7633.00,0.90
7632.00,0.90
7631.00,0.90
7630.00,0.90
7629.00,0.90
7628.00,0.90
7627.00,0.90
7626.00,0.90
7625.00,0.90
7624.00,0.90
7623.00,0.90
7622.00,0.90
7621.00,0.90
7620.00,0.90
7619.00,0.90
7618.00,0.90
7617.00,0.90
7616.00,0.90
7615.00,0.90
7614.00,0.90
7613.00,0.90
7612.00,0.90
7611.00,0.90
7610.00,0.90
7609.00,0.90
7608.00,0.90
7607.00,0.90
7606.00,0.90
7605.00,0.90
7604.00,0.90
7603.00,0.90
7602.00,0.90
7601.00,0.90
7600.00,0.90
7599.00,0.90
7598.00,0.90
7597.00,0.90
7596.00,0.90
7595.00,0.90
7594.00,0.90
7593.00,0.90
7592.00,0.90
7591.00,0.90
7590.00,0.90
7589.00,0.89
7588.00,0.89
7587.00,0.89
7586.00,0.89
7585.00,0.89
7584.00,0.89
7583.00,0.89
7582.00,0.89
7581.00,0.89
7580.00,0.89
7579.00,0.89
7578.00,0.89
7577.00,0.89
7576.00,0.89
7575.00,0.89
7574.00,0.89
7573.00,0.89
7572.00,0.89
7571.00,0.89
7570.00,0.89
7569.00,0.89
7568.00,0.89
7567.00,0.89
7566.00,0.89
7565.00,0.89
7564.00,0.89
7563.00,0.89
7562.00,0.89
7561.00,0.89
7560.00,0.89
7559.00,0.89
7558.00,0.89
7557.00,0.89
7556.00,0.89
7555.00,0.89
7554.00,0.89
7553.00,0.89
7552.00,0.89
7551.00,0.88
7550.00,0.88
7549.00,0.88
7548.00,0.88
7547.00,0.88
7546.00,0.88
7545.00,0.88
7544.00,0.88
7543.00,0.88
7542.00,0.88
7541.00,0.88
7540.00,0.88
7539.00,0.88
7538.00,0.88
7537.00,0.88
7536.00,0.88
7535.00,0.88
7534.00,0.88
7533.00,0.88
7532.00,0.88
7531.00,0.88
7530.00,0.88
7529.00,0.88
7528.00,0.88
7527.00,0.88
7526.00,0.88
7525.00,0.88
7524.00,0.88
7523.00,0.88
7522.00,0.88
7521.00,0.88
7520.00,0.88
7519.00,0.88
7518.00,0.88
7517.00,0.88
7516.00,0.88
7515.00,0.88
7514.00,0.88
7513.00,0.88
7512.00,0.88
7511.00,0.88
7510.00,0.88
7509.00,0.88
7508.00,0.88
7507.00,0.88
7506.00,0.88
7505.00,0.88
7504.00,0.88
7503.00,0.88
7502.00,0.88
7501.00,0.88
7500.00,0.88
7499.00,0.87
7498.00,0.87
7497.00,0.87
7496.00,0.87
7495.00,0.87
7494.00,0.87
7493.00,0.87
7492.00,0.87
7491.00,0.87
7490.00,0.87
7489.00,0.87
7488.00,0.87
7487.00,0.87
7486.00,0.87
7485.00,0.87
7484.00,0.87
7483.00,0.87
7482.00,0.87
7481.00,0.86
7480.00,0.86
7479.00,0.86
7478.00,0.86
7477.00,0.86
7476.00,0.86
7475.00,0.86
7474.00,0.86
7473.00,0.86
7472.00,0.86
7471.00,0.86
7470.00,0.86
7469.00,0.86
7468.00,0.86
7467.00,0.86
7466.00,0.86
7465.00,0.86
7464.00,0.86
7463.00,0.86
7462.00,0.86
7461.00,0.86
7460.00,0.86
7459.00,0.86
7458.00,0.86
7457.00,0.86
7456.00,0.86
7455.00,0.85
7454.00,0.85
7453.00,0.85
7452.00,0.85
7451.00,0.85
7450.00,0.85
7449.00,0.85
7448.00,0.85
7447.00,0.85
7446.00,0.85
7445.00,0.85
7444.00,0.85
7443.00,0.85
7442.00,0.85
7441.00,0.85
7440.00,0.85
7439.00,0.85
7438.00,0.85
7437.00,0.85
7436.00,0.85
7435.00,0.85
7434.00,0.85
7433.00,0.84
7432.00,0.84
7431.00,0.84
7430.00,0.84
7429.00,0.84
7428.00,0.84
7427.00,0.84
7426.00,0.84
7425.00,0.84
7424.00,0.83
7423.00,0.83
7422.00,0.83
7421.00,0.83
7420.00,0.83
7419.00,0.83
7418.00,0.83
7417.00,0.83
7416.00,0.83
7415.00,0.83
7414.00,0.83
7413.00,0.83
7412.00,0.83
7411.00,0.83
7410.00,0.83
7409.00,0.83
7408.00,0.83
7407.00,0.83
7406.00,0.83
7405.00,0.83
7404.00,0.83
7403.00,0.83
7402.00,0.83
7401.00,0.83
7400.00,0.83
7399.00,0.82
7398.00,0.82
7397.00,0.82
7396.00,0.82
7395.00,0.82
7394.00,0.82
7393.00,0.82
7392.00,0.82
7391.00,0.82
7390.00,0.82
7389.00,0.82
7388.00,0.82
7387.00,0.81
7386.00,0.81
7385.00,0.81
7384.00,0.81
7383.00,0.81
7382.00,0.81
7381.00,0.81
7380.00,0.81
7379.00,0.81
7378.00,0.81
7377.00,0.80
7376.00,0.80
7375.00,0.80
7374.00,0.80
7373.00,0.80
7372.00,0.80
7371.00,0.80
7370.00,0.80
7369.00,0.80
7368.00,0.80
7367.00,0.81
7366.00,0.81
7365.00,0.81
7364.00,0.81
7363.00,0.81
7362.00,0.81
7361.00,0.81
7360.00,0.81
7359.00,0.81
7358.00,0.81
7357.00,0.81
7356.00,0.81
7355.00,0.81
7354.00,0.81
7353.00,0.81
7352.00,0.81
7351.00,0.81
7350.00,0.81
7349.00,0.80
7348.00,0.80
7347.00,0.80
7346.00,0.80
7345.00,0.80
7344.00,0.80
7343.00,0.80
7342.00,0.80
7341.00,0.80
7340.00,0.80
7339.00,0.80
7338.00,0.80
7337.00,0.80
7336.00,0.80
7335.00,0.80
7334.00,0.80
7333.00,0.80
7332.00,0.80
7331.00,0.80
7330.00,0.79
7329.00,0.79
7328.00,0.79
7327.00,0.79
7326.00,0.79
7325.00,0.79
7324.00,0.79
7323.00,0.79
7322.00,0.79
7321.00,0.79
7320.00,0.79
7319.00,0.79
7318.00,0.79
7317.00,0.79
7316.00,0.79
7315.00,0.79
7314.00,0.79
7313.00,0.79
7312.00,0.79
7311.00,0.79
7310.00,0.79
7309.00,0.79
7308.00,0.79
7307.00,0.79
7306.00,0.79
7305.00,0.79
7304.00,0.79
7303.00,0.78
7302.00,0.78
7301.00,0.78
7300.00,0.78
7299.00,0.78
7298.00,0.78
7297.00,0.78
7296.00,0.78
7295.00,0.78
7294.00,0.78
7293.00,0.78
7292.00,0.78
7291.00,0.78
7290.00,0.77
7289.00,0.77
7288.00,0.77
7287.00,0.77
7286.00,0.77
7285.00,0.77
7284.00,0.77
7283.00,0.77
7282.00,0.77
7281.00,0.77
7280.00,0.77
7279.00,0.77
7278.00,0.76
7277.00,0.76
7276.00,0.76
7275.00,0.76
7274.00,0.76
7273.00,0.76
7272.00,0.76
7271.00,0.76
7270.00,0.75
7269.00,0.75
7268.00,0.75
7267.00,0.75
7266.00,0.75
7265.00,0.75
7264.00,0.75
7263.00,0.75
7262.00,0.75
7261.00,0.75
7260.00,0.75
7259.00,0.74
7258.00,0.74
7257.00,0.74
7256.00,0.74
7255.00,0.74
7254.00,0.74
7253.00,0.74
7252.00,0.73
7251.00,0.73
7250.00,0.73
7249.00,0.73
7248.00,0.73
7247.00,0.72
7246.00,0.72
7245.00,0.72
7244.00,0.72
7243.00,0.71
7242.00,0.71
7241.00,0.71
7240.00,0.71
7239.00,0.70
7238.00,0.70
7237.00,0.70
7236.00,0.70
7235.00,0.69
7234.00,0.69
7233.00,0.69
7232.00,0.69
7231.00,0.68
7230.00,0.68
7229.00,0.68
7228.00,0.68
7227.00,0.68
7226.00,0.67
7225.00,0.67
7224.00,0.67
7223.00,0.67
7222.00,0.67
7221.00,0.66
7220.00,0.66
7219.00,0.66
7218.00,0.66
7217.00,0.66
7216.00,0.65
7215.00,0.65
7214.00,0.65
7213.00,0.65
7212.00,0.64
7211.00,0.64
7210.00,0.64
7209.00,0.63
7208.00,0.63
7207.00,0.63
7206.00,0.63
7205.00,0.62
7204.00,0.62
7203.00,0.62
7202.00,0.61
7201.00,0.61
7200.00,0.61
7199.00,0.61
7198.00,0.60
7197.00,0.60
7196.00,0.60
7195.00,0.60
7194.00,0.59
7193.00,0.59
7192.00,0.59
7191.00,0.58
7190.00,0.58
7189.00,0.58
7188.00,0.58
7187.00,0.57
7186.00,0.57
7185.00,0.57
7184.00,0.57
7183.00,0.56
7182.00,0.56
7181.00,0.56
7180.00,0.56
7179.00,0.56
7178.00,0.55
7177.00,0.55
7176.00,0.55
7175.00,0.55
7174.00,0.55
7173.00,0.55
7172.00,0.54
7171.00,0.54
7170.00,0.54
7169.00,0.54
7168.00,0.54
7167.00,0.54
7166.00,0.53
7165.00,0.53
7164.00,0.53
7163.00,0.53
7162.00,0.53
7161.00,0.53
7160.00,0.52
7159.00,0.52
7158.00,0.52
7157.00,0.52
7156.00,0.52
7155.00,0.51
7154.00,0.51
7153.00,0.51
7152.00,0.51
7151.00,0.51
7150.00,0.50
7149.00,0.50
7148.00,0.50
7147.00,0.50
7146.00,0.50
7145.00,0.50
7144.00,0.49
7143.00,0.49
7142.00,0.49
7141.00,0.49
7140.00,0.49
7139.00,0.48
7138.00,0.48
7137.00,0.48
7136.00,0.48
7135.00,0.48
7134.00,0.48
7133.00,0.48
7132.00,0.47
7131.00,0.47
7130.00,0.47
7129.00,0.47
7128.00,0.47
7127.00,0.47
7126.00,0.47
7125.00,0.47
7124.00,0.46
7123.00,0.46
7122.00,0.46
7121.00,0.46
7120.00,0.46
7119.00,0.46
7118.00,0.45
7117.00,0.45
7116.00,0.45
7115.00,0.45
7114.00,0.45
7113.00,0.45
7112.00,0.45
7111.00,0.44
7110.00,0.44
7109.00,0.44
7108.00,0.44
7107.00,0.44
7106.00,0.44
7105.00,0.44
7104.00,0.44
7103.00,0.44
7102.00,0.43
7101.00,0.43
7100.00,0.43
7099.00,0.43
7098.00,0.43
7097.00,0.43
7096.00,0.43
7095.00,0.43
7094.00,0.43
7093.00,0.43
7092.00,0.42
7091.00,0.42
7090.00,0.42
7089.00,0.42
7088.00,0.42
7087.00,0.42
7086.00,0.42
7085.00,0.42
7084.00,0.42
7083.00,0.42
7082.00,0.41
7081.00,0.41
7080.00,0.41
7079.00,0.41
7078.00,0.41
7077.00,0.41
7076.00,0.41
7075.00,0.41
7074.00,0.41
7073.00,0.41
7072.00,0.41
7071.00,0.41
7070.00,0.41
7069.00,0.41
7068.00,0.41
7067.00,0.41
7066.00,0.41
7065.00,0.41
7064.00,0.41
7063.00,0.41
7062.00,0.40
7061.00,0.40
7060.00,0.40
7059.00,0.40
7058.00,0.40
7057.00,0.40
7056.00,0.40
7055.00,0.40
7054.00,0.40
7053.00,0.40
7052.00,0.40
7051.00,0.40
7050.00,0.40
7049.00,0.39
7048.00,0.39
7047.00,0.39
7046.00,0.39
7045.00,0.39
7044.00,0.39
7043.00,0.39
7042.00,0.39
7041.00,0.39
7040.00,0.39
7039.00,0.39
7038.00,0.39
7037.00,0.39
7036.00,0.39
7035.00,0.39
7034.00,0.39
7033.00,0.39
7032.00,0.39
7031.00,0.39
7030.00,0.39
7029.00,0.39
7028.00,0.39
7027.00,0.39
7026.00,0.39
7025.00,0.39
7024.00,0.39
7023.00,0.39
7022.00,0.39
7021.00,0.39
7020.00,0.39
7019.00,0.39
7018.00,0.39
7017.00,0.39
7016.00,0.39
7015.00,0.39
7014.00,0.39
7013.00,0.39
7012.00,0.39
7011.00,0.39
7010.00,0.39
7009.00,0.39
7008.00,0.39
7007.00,0.39
7006.00,0.39
7005.00,0.38
7004.00,0.38
7003.00,0.38
7002.00,0.38
7001.00,0.38
7000.00,0.38
6999.00,0.38
6998.00,0.38
6997.00,0.38
6996.00,0.38
6995.00,0.38
6994.00,0.38
6993.00,0.38
6992.00,0.38
6991.00,0.37
6990.00,0.37
6989.00,0.37
6988.00,0.37
6987.00,0.37
6986.00,0.37
6985.00,0.37
6984.00,0.37
6983.00,0.37
6982.00,0.37
6981.00,0.37
6980.00,0.37
6979.00,0.37
6978.00,0.37
6977.00,0.37
6976.00,0.37
6975.00,0.37
6974.00,0.37
6973.00,0.37
6972.00,0.37
6971.00,0.37
6970.00,0.37
6969.00,0.37
6968.00,0.37
6967.00,0.37
6966.00,0.37
6965.00,0.37
6964.00,0.37
6963.00,0.37
6962.00,0.38
6961.00,0.38
6960.00,0.38
6959.00,0.38
6958.00,0.38
6957.00,0.38
6956.00,0.38
6955.00,0.38
6954.00,0.38
6953.00,0.38
6952.00,0.38
6951.00,0.38
6950.00,0.38
6949.00,0.38
6948.00,0.38
6947.00,0.38
6946.00,0.37
6945.00,0.37
6944.00,0.37
6943.00,0.37
6942.00,0.37
6941.00,0.37
6940.00,0.37
6939.00,0.37
6938.00,0.37
6937.00,0.37
6936.00,0.37
6935.00,0.37
6934.00,0.37
6933.00,0.37
6932.00,0.37
6931.00,0.37
6930.00,0.37
6929.00,0.37
6928.00,0.37
6927.00,0.37
6926.00,0.37
6925.00,0.37
6924.00,0.37
6923.00,0.37
6922.00,0.37
6921.00,0.37
6920.00,0.38
6919.00,0.38
6918.00,0.38
6917.00,0.38
6916.00,0.38
6915.00,0.38
6914.00,0.38
6913.00,0.38
6912.00,0.38
6911.00,0.38
6910.00,0.37
6909.00,0.37
6908.00,0.37
6907.00,0.37
6906.00,0.37
6905.00,0.37
6904.00,0.37
6903.00,0.37
6902.00,0.37
6901.00,0.37
6900.00,0.37
6899.00,0.37
6898.00,0.37
6897.00,0.37
6896.00,0.37
6895.00,0.37
6894.00,0.37
6893.00,0.37
6892.00,0.37
6891.00,0.37
6890.00,0.37
6889.00,0.37
6888.00,0.37
6887.00,0.37
6886.00,0.37
6885.00,0.37
6884.00,0.37
6883.00,0.37
6882.00,0.37
6881.00,0.37
6880.00,0.37
6879.00,0.37
6878.00,0.37
6877.00,0.37
6876.00,0.37
6875.00,0.38
6874.00,0.38
6873.00,0.38
6872.00,0.38
6871.00,0.38
6870.00,0.38
6869.00,0.38
6868.00,0.38
6867.00,0.38
6866.00,0.38
6865.00,0.38
6864.00,0.38
6863.00,0.38
6862.00,0.38
6861.00,0.38
6860.00,0.38
6859.00,0.38
6858.00,0.38
6857.00,0.38
6856.00,0.38
6855.00,0.38
6854.00,0.38
6853.00,0.37
6852.00,0.37
6851.00,0.37
6850.00,0.37
6849.00,0.37
6848.00,0.37
6847.00,0.37
6846.00,0.37
6845.00,0.37
6844.00,0.37
6843.00,0.37
6842.00,0.37
6841.00,0.37
6840.00,0.38
6839.00,0.38
6838.00,0.38
6837.00,0.38
6836.00,0.38
6835.00,0.38
6834.00,0.38
6833.00,0.38
6832.00,0.38
6831.00,0.38
6830.00,0.38
6829.00,0.38
6828.00,0.38
6827.00,0.38
6826.00,0.38
6825.00,0.38
6824.00,0.38
6823.00,0.38
6822.00,0.38
6821.00,0.38
6820.00,0.38
6819.00,0.38
6818.00,0.38
6817.00,0.38
6816.00,0.38
6815.00,0.38
6814.00,0.38
6813.00,0.38
6812.00,0.38
6811.00,0.38
6810.00,0.38
6809.00,0.38
6808.00,0.38
6807.00,0.38
6806.00,0.38
6805.00,0.38
6804.00,0.38
6803.00,0.38
6802.00,0.38
6801.00,0.39
6800.00,0.39
6799.00,0.39
6798.00,0.39
6797.00,0.39
6796.00,0.39
6795.00,0.39
6794.00,0.39
6793.00,0.39
6792.00,0.39
6791.00,0.39
6790.00,0.39
6789.00,0.39
6788.00,0.39
6787.00,0.39
6786.00,0.39
6785.00,0.39
6784.00,0.39
6783.00,0.39
6782.00,0.39
6781.00,0.39
6780.00,0.39
6779.00,0.39
6778.00,0.39
6777.00,0.39
6776.00,0.39
6775.00,0.39
6774.00,0.39
6773.00,0.39
6772.00,0.39
6771.00,0.39
6770.00,0.39
6769.00,0.39
6768.00,0.39
6767.00,0.39
6766.00,0.39
6765.00,0.39
6764.00,0.39
6763.00,0.39
6762.00,0.39
6761.00,0.39
6760.00,0.39
6759.00,0.39
6758.00,0.39
6757.00,0.39
6756.00,0.39
6755.00,0.39
6754.00,0.39
6753.00,0.39
6752.00,0.39
6751.00,0.39
6750.00,0.39
6749.00,0.39
6748.00,0.39
6747.00,0.40
6746.00,0.40
6745.00,0.40
6744.00,0.40
6743.00,0.40
6742.00,0.40
6741.00,0.40
6740.00,0.40
6739.00,0.40
6738.00,0.40
6737.00,0.40
6736.00,0.40
6735.00,0.40
6734.00,0.40
6733.00,0.40
6732.00,0.40
6731.00,0.40
6730.00,0.40
6729.00,0.40
6728.00,0.40
6727.00,0.40
6726.00,0.40
6725.00,0.40
6724.00,0.40
6723.00,0.40
6722.00,0.40
6721.00,0.40
6720.00,0.40
6719.00,0.41
6718.00,0.41
6717.00,0.41
6716.00,0.41
6715.00,0.41
6714.00,0.41
6713.00,0.41
6712.00,0.41
6711.00,0.41
6710.00,0.41
6709.00,0.41
6708.00,0.41
6707.00,0.41
6706.00,0.41
6705.00,0.41
6704.00,0.42
6703.00,0.42
6702.00,0.42
6701.00,0.42
6700.00,0.42
6699.00,0.42
6698.00,0.42
6697.00,0.42
6696.00,0.42
6695.00,0.42
6694.00,0.42
6693.00,0.42
6692.00,0.42
6691.00,0.42
6690.00,0.42
6689.00,0.42
6688.00,0.42
6687.00,0.42
6686.00,0.42
6685.00,0.42
6684.00,0.42
6683.00,0.42
6682.00,0.42
6681.00,0.42
6680.00,0.42
6679.00,0.43
6678.00,0.43
6677.00,0.43
6676.00,0.43
6675.00,0.43
6674.00,0.43
6673.00,0.43
6672.00,0.43
6671.00,0.43
6670.00,0.43
6669.00,0.43
6668.00,0.43
6667.00,0.44
6666.00,0.44
6665.00,0.44
6664.00,0.44
6663.00,0.44
6662.00,0.44
6661.00,0.44
6660.00,0.44
6659.00,0.44
6658.00,0.44
6657.00,0.44
6656.00,0.44
6655.00,0.44
6654.00,0.44
6653.00,0.44
6652.00,0.44
6651.00,0.44
6650.00,0.44
6649.00,0.44
6648.00,0.44
6647.00,0.44
6646.00,0.44
6645.00,0.44
6644.00,0.44
6643.00,0.44
6642.00,0.44
6641.00,0.44
6640.00,0.44
6639.00,0.44
6638.00,0.44
6637.00,0.44
6636.00,0.44
6635.00,0.44
6634.00,0.45
6633.00,0.45
6632.00,0.45
6631.00,0.45
6630.00,0.45
6629.00,0.45
6628.00,0.45
6627.00,0.45
6626.00,0.45
6625.00,0.45
6624.00,0.45
6623.00,0.45
6622.00,0.45
6621.00,0.45
6620.00,0.45
6619.00,0.45
6618.00,0.45
6617.00,0.45
6616.00,0.45
6615.00,0.45
6614.00,0.45
6613.00,0.45
6612.00,0.46
6611.00,0.46
6610.00,0.46
6609.00,0.46
6608.00,0.46
6607.00,0.46
6606.00,0.46
6605.00,0.46
6604.00,0.47
6603.00,0.47
6602.00,0.47
6601.00,0.47
6600.00,0.47
6599.00,0.47
6598.00,0.47
6597.00,0.47
6596.00,0.47
6595.00,0.47
6594.00,0.47
6593.00,0.47
6592.00,0.48
6591.00,0.48
6590.00,0.48
6589.00,0.48
6588.00,0.48
6587.00,0.48
6586.00,0.48
6585.00,0.48
6584.00,0.48
6583.00,0.48
6582.00,0.48
6581.00,0.48
6580.00,0.48
6579.00,0.48
6578.00,0.48
6577.00,0.48
6576.00,0.48
6575.00,0.48
6574.00,0.48
6573.00,0.48
6572.00,0.48
6571.00,0.48
6570.00,0.49
6569.00,0.49
6568.00,0.49
6567.00,0.49
6566.00,0.49
6565.00,0.49
6564.00,0.49
6563.00,0.49
6562.00,0.49
6561.00,0.49
6560.00,0.50
6559.00,0.50
6558.00,0.50
6557.00,0.50
6556.00,0.50
6555.00,0.50
6554.00,0.50
6553.00,0.50
6552.00,0.50
6551.00,0.50
6550.00,0.50
6549.00,0.50
6548.00,0.50
6547.00,0.50
6546.00,0.50
6545.00,0.50
6544.00,0.50
6543.00,0.50
6542.00,0.50
6541.00,0.50
6540.00,0.50
6539.00,0.50
6538.00,0.50
6537.00,0.50
6536.00,0.50
6535.00,0.50
6534.00,0.50
6533.00,0.50
6532.00,0.50
6531.00,0.50
6530.00,0.50
6529.00,0.50
6528.00,0.50
6527.00,0.51
6526.00,0.51
6525.00,0.51
6524.00,0.51
6523.00,0.51
6522.00,0.51
6521.00,0.51
6520.00,0.51
6519.00,0.51
6518.00,0.51
6517.00,0.51
6516.00,0.51
6515.00,0.51
6514.00,0.51
6513.00,0.51
6512.00,0.51
6511.00,0.51
6510.00,0.51
6509.00,0.51
6508.00,0.51
6507.00,0.51
6506.00,0.51
6505.00,0.51
6504.00,0.51
6503.00,0.52
6502.00,0.52
6501.00,0.52
6500.00,0.52
6499.00,0.52
6498.00,0.52
6497.00,0.52
6496.00,0.52
6495.00,0.52
6494.00,0.52
6493.00,0.52
6492.00,0.52
6491.00,0.52
6490.00,0.52
6489.00,0.53
6488.00,0.53
6487.00,0.53
6486.00,0.53
6485.00,0.53
6484.00,0.53
6483.00,0.53
6482.00,0.53
6481.00,0.53
6480.00,0.53
6479.00,0.53
6478.00,0.53
6477.00,0.53
6476.00,0.53
6475.00,0.54
6474.00,0.54
6473.00,0.54
6472.00,0.54
6471.00,0.54
6470.00,0.54
6469.00,0.54
6468.00,0.54
6467.00,0.54
6466.00,0.54
6465.00,0.54
6464.00,0.54
6463.00,0.54
6462.00,0.54
6461.00,0.54
6460.00,0.54
6459.00,0.54
6458.00,0.54
6457.00,0.54
6456.00,0.54
6455.00,0.54
6454.00,0.54
6453.00,0.55
6452.00,0.55
6451.00,0.55
6450.00,0.55
6449.00,0.55
6448.00,0.55
6447.00,0.55
6446.00,0.55
6445.00,0.55
6444.00,0.55
6443.00,0.55
6442.00,0.55
6441.00,0.55
6440.00,0.55
6439.00,0.55
6438.00,0.55
6437.00,0.55
6436.00,0.55
6435.00,0.55
6434.00,0.55
6433.00,0.55
6432.00,0.55
6431.00,0.55
6430.00,0.55
6429.00,0.55
6428.00,0.55
6427.00,0.55
6426.00,0.55
6425.00,0.55
6424.00,0.55
6423.00,0.55
6422.00,0.56
6421.00,0.56
6420.00,0.56
6419.00,0.56
6418.00,0.56
6417.00,0.56
6416.00,0.56
6415.00,0.56
6414.00,0.56
6413.00,0.56
6412.00,0.56
6411.00,0.56
6410.00,0.56
6409.00,0.56
6408.00,0.57
6407.00,0.57
6406.00,0.57
6405.00,0.57
6404.00,0.57
6403.00,0.57
6402.00,0.57
6401.00,0.57
6400.00,0.57
6399.00,0.57
6398.00,0.57
6397.00,0.57
6396.00,0.57
6395.00,0.57
6394.00,0.57
6393.00,0.57
6392.00,0.57
6391.00,0.57
6390.00,0.57
6389.00,0.57
6388.00,0.57
6387.00,0.57
6386.00,0.57
6385.00,0.57
6384.00,0.58
6383.00,0.58
6382.00,0.58
6381.00,0.58
6380.00,0.58
6379.00,0.58
6378.00,0.58
6377.00,0.58
6376.00,0.58
6375.00,0.58
6374.00,0.58
6373.00,0.58
6372.00,0.58
6371.00,0.58
6370.00,0.58
6369.00,0.58
6368.00,0.59
6367.00,0.59
6366.00,0.59
6365.00,0.59
6364.00,0.59
6363.00,0.59
6362.00,0.59
6361.00,0.59
6360.00,0.59
6359.00,0.59
6358.00,0.60
6357.00,0.60
6356.00,0.60
6355.00,0.60
6354.00,0.60
6353.00,0.60
6352.00,0.60
6351.00,0.60
6350.00,0.60
6349.00,0.60
6348.00,0.60
6347.00,0.60
6346.00,0.60
6345.00,0.60
6344.00,0.60
6343.00,0.60
6342.00,0.60
6341.00,0.60
6340.00,0.60
6339.00,0.60
6338.00,0.60
6337.00,0.60
6336.00,0.60
6335.00,0.60
6334.00,0.60
6333.00,0.60
6332.00,0.61
6331.00,0.61
6330.00,0.61
6329.00,0.61
6328.00,0.61
6327.00,0.61
6326.00,0.61
6325.00,0.61
6324.00,0.61
6323.00,0.61
6322.00,0.61
6321.00,0.61
6320.00,0.62
6319.00,0.62
6318.00,0.62
6317.00,0.62
6316.00,0.62
6315.00,0.62
6314.00,0.62
6313.00,0.62
6312.00,0.62
6311.00,0.62
6310.00,0.62
6309.00,0.62
6308.00,0.62
6307.00,0.62
6306.00,0.63
6305.00,0.63
6304.00,0.63
6303.00,0.63
6302.00,0.63
6301.00,0.63
6300.00,0.63
6299.00,0.63
6298.00,0.63
6297.00,0.64
6296.00,0.64
6295.00,0.64
6294.00,0.64
6293.00,0.64
6292.00,0.64
6291.00,0.64
6290.00,0.65
6289.00,0.65
6288.00,0.65
6287.00,0.65
6286.00,0.65
6285.00,0.65
6284.00,0.65
6283.00,0.65
6282.00,0.66
6281.00,0.66
6280.00,0.66
6279.00,0.66
6278.00,0.66
6277.00,0.66
6276.00,0.66
6275.00,0.66
6274.00,0.66
6273.00,0.66
6272.00,0.66
6271.00,0.66
6270.00,0.66
6269.00,0.66
6268.00,0.66
6267.00,0.66
6266.00,0.66
6265.00,0.66
6264.00,0.66
6263.00,0.66
6262.00,0.66
6261.00,0.66
6260.00,0.66
6259.00,0.67
6258.00,0.67
6257.00,0.67
6256.00,0.67
6255.00,0.67
6254.00,0.67
6253.00,0.67
6252.00,0.67
6251.00,0.67
6250.00,0.67
6249.00,0.67
6248.00,0.67
6247.00,0.67
6246.00,0.67
6245.00,0.67
6244.00,0.67
6243.00,0.67
6242.00,0.67
6241.00,0.67
6240.00,0.67
6239.00,0.67
6238.00,0.67
6237.00,0.68
6236.00,0.68
6235.00,0.68
6234.00,0.68
6233.00,0.68
6232.00,0.68
6231.00,0.68
6230.00,0.68
6229.00,0.68
6228.00,0.68
6227.00,0.68
6226.00,0.69
6225.00,0.69
6224.00,0.69
6223.00,0.69
6222.00,0.69
6221.00,0.69
6220.00,0.69
6219.00,0.69
6218.00,0.69
6217.00,0.69
6216.00,0.70
6215.00,0.70
6214.00,0.70
6213.00,0.70
6212.00,0.70
6211.00,0.70
6210.00,0.70
6209.00,0.70
6208.00,0.71
6207.00,0.71
6206.00,0.71
6205.00,0.71
6204.00,0.71
6203.00,0.71
6202.00,0.71
6201.00,0.71
6200.00,0.71
6199.00,0.72
6198.00,0.72
6197.00,0.72
6196.00,0.72
6195.00,0.72
6194.00,0.72
6193.00,0.72
6192.00,0.72
6191.00,0.72
6190.00,0.72
6189.00,0.72
6188.00,0.72
6187.00,0.72
6186.00,0.72
6185.00,0.72
6184.00,0.72
6183.00,0.72
6182.00,0.73
6181.00,0.73
6180.00,0.73
6179.00,0.73
6178.00,0.73
6177.00,0.73
6176.00,0.73
6175.00,0.73
6174.00,0.74
6173.00,0.74
6172.00,0.74
6171.00,0.74
6170.00,0.74
6169.00,0.74
6168.00,0.74
6167.00,0.74
6166.00,0.74
6165.00,0.74
6164.00,0.75
6163.00,0.75
6162.00,0.75
6161.00,0.75
6160.00,0.75
6159.00,0.75
6158.00,0.75
6157.00,0.75
6156.00,0.75
6155.00,0.75
6154.00,0.76
6153.00,0.76
6152.00,0.76
6151.00,0.76
6150.00,0.76
6149.00,0.76
6148.00,0.76
6147.00,0.76
6146.00,0.76
6145.00,0.77
6144.00,0.77
6143.00,0.77
6142.00,0.77
6141.00,0.77
6140.00,0.77
6139.00,0.77
6138.00,0.77
6137.00,0.77
6136.00,0.77
6135.00,0.77
6134.00,0.77
6133.00,0.77
6132.00,0.78
6131.00,0.78
6130.00,0.78
6129.00,0.78
6128.00,0.78
6127.00,0.78
6126.00,0.78
6125.00,0.78
6124.00,0.78
6123.00,0.79
6122.00,0.79
6121.00,0.79
6120.00,0.79
6119.00,0.79
6118.00,0.79
6117.00,0.79
6116.00,0.79
6115.00,0.80
6114.00,0.80
6113.00,0.80
6112.00,0.80
6111.00,0.80
6110.00,0.80
6109.00,0.80
6108.00,0.80
6107.00,0.80
6106.00,0.80
6105.00,0.80
6104.00,0.80
6103.00,0.81
6102.00,0.81
6101.00,0.81
6100.00,0.81
6099.00,0.81
6098.00,0.81
6097.00,0.81
6096.00,0.81
6095.00,0.82
6094.00,0.82
6093.00,0.82
6092.00,0.82
6091.00,0.82
6090.00,0.82
6089.00,0.82
6088.00,0.82
6087.00,0.82
6086.00,0.82
6085.00,0.82
6084.00,0.82
6083.00,0.82
6082.00,0.82
6081.00,0.83
6080.00,0.83
6079.00,0.83
6078.00,0.83
6077.00,0.83
6076.00,0.83
6075.00,0.83
6074.00,0.83
6073.00,0.83
6072.00,0.83
6071.00,0.83
6070.00,0.83
6069.00,0.83
6068.00,0.83
6067.00,0.83
6066.00,0.83
6065.00,0.84
6064.00,0.84
6063.00,0.84
6062.00,0.84
6061.00,0.84
6060.00,0.84
6059.00,0.84
6058.00,0.84
6057.00,0.84
6056.00,0.85
6055.00,0.85
6054.00,0.85
6053.00,0.85
6052.00,0.85
6051.00,0.85
6050.00,0.85
6049.00,0.85
6048.00,0.85
6047.00,0.85
6046.00,0.85
6045.00,0.85
6044.00,0.85
6043.00,0.85
6042.00,0.85
6041.00,0.85
6040.00,0.85
6039.00,0.86
6038.00,0.86
6037.00,0.86
6036.00,0.86
6035.00,0.86
6034.00,0.86
6033.00,0.86
6032.00,0.86
6031.00,0.86
6030.00,0.86
6029.00,0.86
6028.00,0.86
6027.00,0.86
6026.00,0.86
6025.00,0.86
6024.00,0.86
6023.00,0.86
6022.00,0.86
6021.00,0.86
6020.00,0.86
6019.00,0.86
6018.00,0.86
6017.00,0.86
6016.00,0.86
6015.00,0.86
6014.00,0.86
6013.00,0.86
6012.00,0.86
6011.00,0.86
6010.00,0.86
6009.00,0.86
6008.00,0.86
6007.00,0.86
6006.00,0.86
6005.00,0.86
6004.00,0.86
6003.00,0.86
6002.00,0.86
6001.00,0.86
6000.00,0.86
5999.00,0.86
5998.00,0.85
5997.00,0.85
5996.00,0.85
5995.00,0.85
5994.00,0.85
5993.00,0.85
5992.00,0.85
5991.00,0.85
5990.00,0.85
5989.00,0.85
5988.00,0.85
5987.00,0.85
5986.00,0.85
5985.00,0.84
5984.00,0.84
5983.00,0.84
5982.00,0.84
5981.00,0.84
5980.00,0.83
5979.00,0.83
5978.00,0.83
5977.00,0.83
5976.00,0.82
5975.00,0.82
5974.00,0.82
5973.00,0.82
5972.00,0.81
5971.00,0.81
5970.00,0.80
5969.00,0.80
5968.00,0.80
5967.00,0.79
5966.00,0.79
5965.00,0.79
5964.00,0.78
5963.00,0.78
5962.00,0.77
5961.00,0.77
5960.00,0.76
5959.00,0.76
5958.00,0.76
5957.00,0.75
5956.00,0.75
5955.00,0.75
5954.00,0.74
5953.00,0.74
5952.00,0.74
5951.00,0.73
5950.00,0.73
5949.00,0.73
5948.00,0.73
5947.00,0.73
5946.00,0.72
5945.00,0.72
5944.00,0.72
5943.00,0.72
5942.00,0.72
5941.00,0.72
5940.00,0.72
5939.00,0.72
5938.00,0.72
5937.00,0.72
5936.00,0.72
5935.00,0.72
5934.00,0.72
5933.00,0.71
5932.00,0.71
5931.00,0.71
5930.00,0.71
5929.00,0.71
5928.00,0.71
5927.00,0.71
5926.00,0.71
5925.00,0.71
5924.00,0.71
5923.00,0.71
5922.00,0.70
5921.00,0.70
5920.00,0.70
5919.00,0.70
5918.00,0.70
5917.00,0.70
5916.00,0.69
5915.00,0.69
5914.00,0.69
5913.00,0.69
5912.00,0.69
5911.00,0.69
5910.00,0.68
5909.00,0.68
5908.00,0.68
5907.00,0.68
5906.00,0.68
5905.00,0.68
5904.00,0.68
5903.00,0.68
5902.00,0.68
5901.00,0.68
5900.00,0.68
5899.00,0.68
5898.00,0.68
5897.00,0.68
5896.00,0.69
5895.00,0.69
5894.00,0.69
5893.00,0.69
5892.00,0.69
5891.00,0.69
5890.00,0.70
5889.00,0.70
5888.00,0.70
5887.00,0.70
5886.00,0.70
5885.00,0.71
5884.00,0.71
5883.00,0.71
5882.00,0.71
5881.00,0.71
5880.00,0.72
5879.00,0.72
5878.00,0.72
5877.00,0.72
5876.00,0.72
5875.00,0.72
5874.00,0.72
5873.00,0.72
5872.00,0.72
5871.00,0.73
5870.00,0.73
5869.00,0.73
5868.00,0.73
5867.00,0.73
5866.00,0.73
5865.00,0.73
5864.00,0.73
5863.00,0.73
5862.00,0.73
5861.00,0.74
5860.00,0.74
5859.00,0.74
5858.00,0.74
5857.00,0.74
5856.00,0.74
5855.00,0.74
5854.00,0.74
5853.00,0.74
5852.00,0.74
5851.00,0.74
5850.00,0.74
5849.00,0.74
5848.00,0.74
5847.00,0.74
5846.00,0.74
5845.00,0.74
5844.00,0.74
5843.00,0.74
5842.00,0.74
5841.00,0.74
5840.00,0.74
5839.00,0.74
5838.00,0.74
5837.00,0.74
5836.00,0.74
5835.00,0.74
5834.00,0.74
5833.00,0.74
5832.00,0.74
5831.00,0.74
5830.00,0.74
5829.00,0.74
5828.00,0.74
5827.00,0.74
5826.00,0.74
5825.00,0.74
5824.00,0.74
5823.00,0.74
5822.00,0.74
5821.00,0.74
5820.00,0.74
5819.00,0.74
5818.00,0.74
5817.00,0.74
5816.00,0.74
5815.00,0.74
5814.00,0.74
5813.00,0.74
5812.00,0.74
5811.00,0.74
5810.00,0.74
5809.00,0.74
5808.00,0.74
5807.00,0.74
5806.00,0.74
5805.00,0.74
5804.00,0.74
5803.00,0.74
5802.00,0.74
5801.00,0.74
5800.00,0.74
5799.00,0.74
5798.00,0.74
5797.00,0.74
5796.00,0.73
5795.00,0.73
5794.00,0.73
5793.00,0.73
5792.00,0.73
5791.00,0.73
5790.00,0.73
5789.00,0.73
5788.00,0.72
5787.00,0.72
5786.00,0.72
5785.00,0.72
5784.00,0.72
5783.00,0.72
5782.00,0.72
5781.00,0.72
5780.00,0.71
5779.00,0.71
5778.00,0.71
5777.00,0.71
5776.00,0.71
5775.00,0.71
5774.00,0.71
5773.00,0.71
5772.00,0.71
5771.00,0.71
5770.00,0.71
5769.00,0.72
5768.00,0.72
5767.00,0.72
5766.00,0.72
5765.00,0.72
5764.00,0.72
5763.00,0.72
5762.00,0.72
5761.00,0.73
5760.00,0.73
5759.00,0.73
5758.00,0.73
5757.00,0.73
5756.00,0.73
5755.00,0.74
5754.00,0.74
5753.00,0.74
5752.00,0.74
5751.00,0.74
5750.00,0.74
5749.00,0.74
5748.00,0.75
5747.00,0.75
5746.00,0.75
5745.00,0.75
5744.00,0.75
5743.00,0.75
5742.00,0.75
5741.00,0.75
5740.00,0.76
5739.00,0.76
5738.00,0.76
5737.00,0.76
5736.00,0.76
5735.00,0.76
5734.00,0.76
5733.00,0.77
5732.00,0.77
5731.00,0.77
5730.00,0.77
5729.00,0.77
5728.00,0.77
5727.00,0.77
5726.00,0.77
5725.00,0.77
5724.00,0.77
5723.00,0.77
5722.00,0.77
5721.00,0.77
5720.00,0.77
5719.00,0.77
5718.00,0.77
5717.00,0.77
5716.00,0.77
5715.00,0.77
5714.00,0.77
5713.00,0.77
5712.00,0.77
5711.00,0.77
5710.00,0.77
5709.00,0.76
5708.00,0.76
5707.00,0.76
5706.00,0.76
5705.00,0.76
5704.00,0.76
5703.00,0.76
5702.00,0.76
5701.00,0.76
5700.00,0.76
5699.00,0.76
5698.00,0.76
5697.00,0.76
5696.00,0.75
5695.00,0.75
5694.00,0.75
5693.00,0.75
5692.00,0.75
5691.00,0.75
5690.00,0.75
5689.00,0.75
5688.00,0.75
5687.00,0.75
5686.00,0.75
5685.00,0.75
5684.00,0.75
5683.00,0.75
5682.00,0.74
5681.00,0.74
5680.00,0.74
5679.00,0.74
5678.00,0.74
5677.00,0.74
5676.00,0.74
5675.00,0.74
5674.00,0.74
5673.00,0.74
5672.00,0.74
5671.00,0.74
5670.00,0.74
5669.00,0.74
5668.00,0.74
5667.00,0.74
5666.00,0.74
5665.00,0.74
5664.00,0.74
5663.00,0.75
5662.00,0.75
5661.00,0.75
5660.00,0.75
5659.00,0.75
5658.00,0.75
5657.00,0.75
5656.00,0.75
5655.00,0.75
5654.00,0.75
5653.00,0.75
5652.00,0.75
5651.00,0.76
5650.00,0.76
5649.00,0.76
5648.00,0.76
5647.00,0.76
5646.00,0.76
5645.00,0.76
5644.00,0.76
5643.00,0.76
5642.00,0.77
5641.00,0.77
5640.00,0.77
5639.00,0.77
5638.00,0.77
5637.00,0.77
5636.00,0.77
5635.00,0.77
5634.00,0.77
5633.00,0.77
5632.00,0.78
5631.00,0.78
5630.00,0.78
5629.00,0.78
5628.00,0.78
5627.00,0.78
5626.00,0.78
5625.00,0.78
5624.00,0.78
5623.00,0.78
5622.00,0.78
5621.00,0.79
5620.00,0.79
5619.00,0.79
5618.00,0.79
5617.00,0.79
5616.00,0.79
5615.00,0.79
5614.00,0.79
5613.00,0.79
5612.00,0.79
5611.00,0.79
5610.00,0.79
5609.00,0.79
5608.00,0.79
5607.00,0.80
5606.00,0.80
5605.00,0.80
5604.00,0.80
5603.00,0.80
5602.00,0.80
5601.00,0.80
5600.00,0.80
5599.00,0.80
5598.00,0.81
5597.00,0.81
5596.00,0.81
5595.00,0.81
5594.00,0.81
5593.00,0.81
5592.00,0.81
5591.00,0.81
5590.00,0.82
5589.00,0.82
5588.00,0.82
5587.00,0.82
5586.00,0.82
5585.00,0.82
5584.00,0.82
5583.00,0.82
5582.00,0.82
5581.00,0.82
5580.00,0.82
5579.00,0.82
5578.00,0.82
5577.00,0.82
5576.00,0.82
5575.00,0.82
5574.00,0.83
5573.00,0.83
5572.00,0.83
5571.00,0.83
5570.00,0.83
5569.00,0.83
5568.00,0.83
5567.00,0.83
5566.00,0.83
5565.00,0.83
5564.00,0.83
5563.00,0.83
5562.00,0.83
5561.00,0.83
5560.00,0.83
5559.00,0.83
5558.00,0.84
5557.00,0.84
5556.00,0.84
5555.00,0.84
5554.00,0.84
5553.00,0.84
5552.00,0.84
5551.00,0.85
5550.00,0.85
5549.00,0.85
5548.00,0.85
5547.00,0.85
5546.00,0.85
5545.00,0.85
5544.00,0.85
5543.00,0.85
5542.00,0.85
5541.00,0.85
5540.00,0.86
5539.00,0.86
5538.00,0.86
5537.00,0.86
5536.00,0.86
5535.00,0.86
5534.00,0.86
5533.00,0.86
5532.00,0.86
5531.00,0.86
5530.00,0.86
5529.00,0.86
5528.00,0.86
5527.00,0.86
5526.00,0.86
5525.00,0.86
5524.00,0.86
5523.00,0.86
5522.00,0.86
5521.00,0.87
5520.00,0.87
5519.00,0.87
5518.00,0.87
5517.00,0.87
5516.00,0.87
5515.00,0.87
5514.00,0.87
5513.00,0.87
5512.00,0.87
5511.00,0.87
5510.00,0.87
5509.00,0.87
5508.00,0.87
5507.00,0.87
5506.00,0.87
5505.00,0.87
5504.00,0.87
5503.00,0.87
5502.00,0.87
5501.00,0.87
5500.00,0.87
5499.00,0.87
5498.00,0.87
5497.00,0.87
5496.00,0.87
5495.00,0.87
5494.00,0.87
5493.00,0.87
5492.00,0.88
5491.00,0.88
5490.00,0.88
5489.00,0.88
5488.00,0.88
5487.00,0.88
5486.00,0.88
5485.00,0.88
5484.00,0.88
5483.00,0.88
5482.00,0.88
5481.00,0.88
5480.00,0.88
5479.00,0.88
5478.00,0.89
5477.00,0.89
5476.00,0.89
5475.00,0.89
5474.00,0.89
5473.00,0.89
5472.00,0.89
5471.00,0.89
5470.00,0.89
5469.00,0.89
5468.00,0.89
5467.00,0.89
5466.00,0.89
5465.00,0.89
5464.00,0.90
5463.00,0.90
5462.00,0.90
5461.00,0.90
5460.00,0.90
5459.00,0.90
5458.00,0.90
5457.00,0.90
5456.00,0.90
5455.00,0.90
5454.00,0.90
5453.00,0.90
5452.00,0.90
5451.00,0.90
5450.00,0.90
5449.00,0.90
5448.00,0.90
5447.00,0.90
5446.00,0.90
5445.00,0.90
5444.00,0.90
5443.00,0.90
5442.00,0.90
5441.00,0.90
5440.00,0.90
5439.00,0.90
5438.00,0.90
5437.00,0.90
5436.00,0.90
5435.00,0.90
5434.00,0.90
5433.00,0.90
5432.00,0.90
5431.00,0.90
5430.00,0.90
5429.00,0.90
5428.00,0.90
5427.00,0.90
5426.00,0.90
5425.00,0.90
5424.00,0.90
5423.00,0.90
5422.00,0.90
5421.00,0.90
5420.00,0.90
5419.00,0.90
5418.00,0.90
5417.00,0.90
5416.00,0.90
5415.00,0.90
5414.00,0.90
5413.00,0.90
5412.00,0.90
5411.00,0.90
5410.00,0.90
5409.00,0.90
5408.00,0.90
5407.00,0.90
5406.00,0.90
5405.00,0.90
5404.00,0.90
5403.00,0.90
5402.00,0.89
5401.00,0.89
5400.00,0.89
5399.00,0.89
5398.00,0.89
5397.00,0.89
5396.00,0.89
5395.00,0.88
5394.00,0.88
5393.00,0.88
5392.00,0.88
5391.00,0.87
5390.00,0.87
5389.00,0.87
5388.00,0.87
5387.00,0.86
5386.00,0.86
5385.00,0.86
5384.00,0.86
5383.00,0.85
5382.00,0.85
5381.00,0.85
5380.00,0.85
5379.00,0.84
5378.00,0.84
5377.00,0.84
5376.00,0.84
5375.00,0.83
5374.00,0.83
5373.00,0.83
5372.00,0.82
5371.00,0.82
5370.00,0.82
5369.00,0.81
5368.00,0.81
5367.00,0.81
5366.00,0.80
5365.00,0.80
5364.00,0.80
5363.00,0.79
5362.00,0.79
5361.00,0.78
5360.00,0.78
5359.00,0.77
5358.00,0.77
5357.00,0.76
5356.00,0.76
5355.00,0.75
5354.00,0.75
5353.00,0.74
5352.00,0.74
5351.00,0.73
5350.00,0.73
5349.00,0.72
5348.00,0.72
5347.00,0.71
5346.00,0.71
5345.00,0.70
5344.00,0.70
5343.00,0.69
5342.00,0.68
5341.00,0.68
5340.00,0.67
5339.00,0.67
5338.00,0.66
5337.00,0.66
5336.00,0.65
5335.00,0.65
5334.00,0.64
5333.00,0.64
5332.00,0.63
5331.00,0.63
5330.00,0.62
5329.00,0.62
5328.00,0.61
5327.00,0.61
5326.00,0.61
5325.00,0.60
5324.00,0.60
5323.00,0.59
5322.00,0.59
5321.00,0.59
5320.00,0.58
5319.00,0.58
5318.00,0.58
5317.00,0.57
5316.00,0.57
5315.00,0.57
5314.00,0.56
5313.00,0.56
5312.00,0.56
5311.00,0.55
5310.00,0.55
5309.00,0.55
5308.00,0.55
5307.00,0.54
5306.00,0.54
5305.00,0.54
5304.00,0.54
5303.00,0.54
5302.00,0.54
5301.00,0.53
5300.00,0.53
5299.00,0.53
5298.00,0.53
5297.00,0.53
5296.00,0.53
5295.00,0.53
5294.00,0.53
5293.00,0.52
5292.00,0.52
5291.00,0.52
5290.00,0.52
5289.00,0.52
5288.00,0.52
5287.00,0.52
5286.00,0.52
5285.00,0.52
5284.00,0.52
5283.00,0.52
5282.00,0.52
5281.00,0.52
5280.00,0.52
5279.00,0.52
5278.00,0.52
5277.00,0.52
5276.00,0.52
5275.00,0.52
5274.00,0.52
5273.00,0.52
5272.00,0.52
5271.00,0.52
5270.00,0.52
5269.00,0.52
5268.00,0.52
5267.00,0.52
5266.00,0.52
5265.00,0.52
5264.00,0.52
5263.00,0.52
5262.00,0.52
5261.00,0.52
5260.00,0.52
5259.00,0.52
5258.00,0.52
5257.00,0.52
5256.00,0.52
5255.00,0.52
5254.00,0.52
5253.00,0.52
5252.00,0.52
5251.00,0.52
5250.00,0.52
5249.00,0.52
5248.00,0.52
5247.00,0.52
5246.00,0.52
5245.00,0.52
5244.00,0.52
5243.00,0.52
5242.00,0.52
5241.00,0.52
5240.00,0.52
5239.00,0.52
5238.00,0.52
5237.00,0.52
5236.00,0.52
5235.00,0.52
5234.00,0.52
5233.00,0.52
5232.00,0.52
5231.00,0.52
5230.00,0.52
5229.00,0.52
5228.00,0.52
5227.00,0.52
5226.00,0.52
5225.00,0.52
5224.00,0.52
5223.00,0.52
5222.00,0.52
5221.00,0.52
5220.00,0.52
5219.00,0.52
5218.00,0.52
5217.00,0.52
5216.00,0.52
5215.00,0.52
5214.00,0.52
5213.00,0.53
5212.00,0.53
5211.00,0.53
5210.00,0.53
5209.00,0.53
5208.00,0.53
5207.00,0.53
5206.00,0.53
5205.00,0.53
5204.00,0.53
5203.00,0.53
5202.00,0.53
5201.00,0.53
5200.00,0.53
5199.00,0.53
5198.00,0.53
5197.00,0.53
5196.00,0.53
5195.00,0.53
5194.00,0.53
5193.00,0.53
5192.00,0.53
5191.00,0.53
5190.00,0.53
5189.00,0.53
5188.00,0.53
5187.00,0.53
5186.00,0.53
5185.00,0.53
5184.00,0.53
5183.00,0.53
5182.00,0.53
5181.00,0.53
5180.00,0.53
5179.00,0.53
5178.00,0.53
5177.00,0.53
5176.00,0.53
5175.00,0.53
5174.00,0.53
5173.00,0.53
5172.00,0.54
5171.00,0.54
5170.00,0.54
5169.00,0.54
5168.00,0.54
5167.00,0.54
5166.00,0.54
5165.00,0.54
5164.00,0.54
5163.00,0.54
5162.00,0.54
5161.00,0.54
5160.00,0.54
5159.00,0.54
5158.00,0.54
5157.00,0.54
5156.00,0.54
5155.00,0.54
5154.00,0.54
5153.00,0.54
5152.00,0.54
5151.00,0.54
5150.00,0.54
5149.00,0.54
5148.00,0.54
5147.00,0.54
5146.00,0.55
5145.00,0.55
5144.00,0.55
5143.00,0.55
5142.00,0.55
5141.00,0.55
5140.00,0.55
5139.00,0.55
5138.00,0.55
5137.00,0.55
5136.00,0.55
5135.00,0.55
5134.00,0.55
5133.00,0.55
5132.00,0.55
5131.00,0.55
5130.00,0.55
5129.00,0.55
5128.00,0.55
5127.00,0.55
5126.00,0.55
5125.00,0.55
5124.00,0.55
5123.00,0.55
5122.00,0.55
5121.00,0.55
5120.00,0.55
5119.00,0.55
5118.00,0.55
5117.00,0.55
5116.00,0.55
5115.00,0.55
5114.00,0.55
5113.00,0.55
5112.00,0.55
5111.00,0.55
5110.00,0.55
5109.00,0.56
5108.00,0.56
5107.00,0.56
5106.00,0.56
5105.00,0.56
5104.00,0.56
5103.00,0.56
5102.00,0.56
5101.00,0.56
5100.00,0.56
5099.00,0.56
5098.00,0.56
5097.00,0.56
5096.00,0.56
5095.00,0.56
5094.00,0.56
5093.00,0.56
5092.00,0.56
5091.00,0.56
5090.00,0.56
5089.00,0.56
5088.00,0.56
5087.00,0.56
5086.00,0.56
5085.00,0.56
5084.00,0.56
5083.00,0.56
5082.00,0.56
5081.00,0.56
5080.00,0.56
5079.00,0.56
5078.00,0.56
5077.00,0.56
5076.00,0.56
5075.00,0.56
5074.00,0.56
5073.00,0.56
5072.00,0.56
5071.00,0.56
5070.00,0.56
5069.00,0.56
5068.00,0.57
5067.00,0.57
5066.00,0.57
5065.00,0.57
5064.00,0.57
5063.00,0.57
5062.00,0.57
5061.00,0.57
5060.00,0.57
5059.00,0.57
5058.00,0.57
5057.00,0.57
5056.00,0.57
5055.00,0.57
5054.00,0.57
5053.00,0.57
5052.00,0.57
5051.00,0.57
5050.00,0.57
5049.00,0.57
5048.00,0.57
5047.00,0.57
5046.00,0.57
5045.00,0.57
5044.00,0.57
5043.00,0.57
5042.00,0.57
5041.00,0.57
5040.00,0.57
5039.00,0.57
5038.00,0.57
5037.00,0.57
5036.00,0.58
5035.00,0.58
5034.00,0.58
5033.00,0.58
5032.00,0.58
5031.00,0.58
5030.00,0.58
5029.00,0.58
5028.00,0.58
5027.00,0.58
5026.00,0.58
5025.00,0.58
5024.00,0.58
5023.00,0.58
5022.00,0.58
5021.00,0.58
5020.00,0.58
5019.00,0.58
5018.00,0.58
5017.00,0.58
5016.00,0.58
5015.00,0.58
5014.00,0.59
5013.00,0.59
5012.00,0.59
5011.00,0.59
5010.00,0.59
5009.00,0.59
5008.00,0.59
5007.00,0.59
5006.00,0.59
5005.00,0.59
5004.00,0.59
5003.00,0.59
5002.00,0.59
5001.00,0.59
5000.00,0.59
4999.00,0.59
4998.00,0.59
4997.00,0.59
4996.00,0.59
4995.00,0.59
4994.00,0.59
4993.00,0.59
4992.00,0.59
4991.00,0.59
4990.00,0.59
4989.00,0.59
4988.00,0.59
4987.00,0.59
4986.00,0.59
4985.00,0.59
4984.00,0.59
4983.00,0.59
4982.00,0.59
4981.00,0.59
4980.00,0.60
4979.00,0.60
4978.00,0.60
4977.00,0.60
4976.00,0.60
4975.00,0.60
4974.00,0.60
4973.00,0.60
4972.00,0.60
4971.00,0.60
4970.00,0.60
4969.00,0.60
4968.00,0.60
4967.00,0.60
4966.00,0.60
4965.00,0.60
4964.00,0.60
4963.00,0.60
4962.00,0.60
4961.00,0.60
4960.00,0.60
4959.00,0.60
4958.00,0.60
4957.00,0.60
4956.00,0.60
4955.00,0.60
4954.00,0.60
4953.00,0.60
4952.00,0.60
4951.00,0.60
4950.00,0.60
4949.00,0.60
4948.00,0.60
4947.00,0.60
4946.00,0.60
4945.00,0.61
4944.00,0.61
4943.00,0.61
4942.00,0.61
4941.00,0.61
4940.00,0.61
4939.00,0.61
4938.00,0.61
4937.00,0.61
4936.00,0.61
4935.00,0.61
4934.00,0.61
4933.00,0.61
4932.00,0.61
4931.00,0.61
4930.00,0.61
4929.00,0.61
4928.00,0.61
4927.00,0.61
4926.00,0.61
4925.00,0.61
4924.00,0.61
4923.00,0.61
4922.00,0.61
4921.00,0.61
4920.00,0.62
4919.00,0.62
4918.00,0.62
4917.00,0.62
4916.00,0.62
4915.00,0.62
4914.00,0.62
4913.00,0.62
4912.00,0.62
4911.00,0.62
4910.00,0.62
4909.00,0.62
4908.00,0.62
4907.00,0.62
4906.00,0.62
4905.00,0.62
4904.00,0.62
4903.00,0.62
4902.00,0.62
4901.00,0.62
4900.00,0.62
4899.00,0.62
4898.00,0.62
4897.00,0.62
4896.00,0.63
4895.00,0.63
4894.00,0.63
4893.00,0.63
4892.00,0.63
4891.00,0.63
4890.00,0.63
4889.00,0.63
4888.00,0.63
4887.00,0.63
4886.00,0.63
4885.00,0.63
4884.00,0.64
4883.00,0.64
4882.00,0.64
4881.00,0.64
4880.00,0.64
4879.00,0.64
4878.00,0.64
4877.00,0.64
4876.00,0.64
4875.00,0.64
4874.00,0.64
4873.00,0.64
4872.00,0.64
4871.00,0.64
4870.00,0.64
4869.00,0.64
4868.00,0.64
4867.00,0.64
4866.00,0.64
4865.00,0.64
4864.00,0.64
4863.00,0.64
4862.00,0.64
4861.00,0.64
4860.00,0.64
4859.00,0.64
4858.00,0.64
4857.00,0.64
4856.00,0.64
4855.00,0.64
4854.00,0.64
4853.00,0.65
4852.00,0.65
4851.00,0.65
4850.00,0.65
4849.00,0.65
4848.00,0.65
4847.00,0.65
4846.00,0.65
4845.00,0.65
4844.00,0.65
4843.00,0.65
4842.00,0.65
4841.00,0.65
4840.00,0.65
4839.00,0.65
4838.00,0.65
4837.00,0.65
4836.00,0.65
4835.00,0.65
4834.00,0.65
4833.00,0.65
4832.00,0.65
4831.00,0.65
4830.00,0.65
4829.00,0.65
4828.00,0.65
4827.00,0.65
4826.00,0.65
4825.00,0.65
4824.00,0.65
4823.00,0.65
4822.00,0.65
4821.00,0.65
4820.00,0.65
4819.00,0.65
4818.00,0.65
4817.00,0.65
4816.00,0.65
4815.00,0.65
4814.00,0.65
4813.00,0.65
4812.00,0.66
4811.00,0.66
4810.00,0.66
4809.00,0.66
4808.00,0.66
4807.00,0.66
4806.00,0.66
4805.00,0.66
4804.00,0.66
4803.00,0.66
4802.00,0.66
4801.00,0.66
4800.00,0.66
4799.00,0.66
4798.00,0.66
4797.00,0.67
4796.00,0.67
4795.00,0.67
4794.00,0.67
4793.00,0.67
4792.00,0.67
4791.00,0.67
4790.00,0.67
4789.00,0.67
4788.00,0.67
4787.00,0.67
4786.00,0.67
4785.00,0.67
4784.00,0.67
4783.00,0.67
4782.00,0.67
4781.00,0.67
4780.00,0.67
4779.00,0.67
4778.00,0.67
4777.00,0.67
4776.00,0.67
4775.00,0.67
4774.00,0.68
4773.00,0.68
4772.00,0.68
4771.00,0.68
4770.00,0.68
4769.00,0.68
4768.00,0.68
4767.00,0.68
4766.00,0.68
4765.00,0.68
4764.00,0.68
4763.00,0.68
4762.00,0.68
4761.00,0.69
4760.00,0.69
4759.00,0.69
4758.00,0.69
4757.00,0.69
4756.00,0.69
4755.00,0.69
4754.00,0.69
4753.00,0.69
4752.00,0.69
4751.00,0.69
4750.00,0.69
4749.00,0.69
4748.00,0.70
4747.00,0.70
4746.00,0.70
4745.00,0.70
4744.00,0.70
4743.00,0.70
4742.00,0.70
4741.00,0.70
4740.00,0.70
4739.00,0.70
4738.00,0.70
4737.00,0.70
4736.00,0.70
4735.00,0.70
4734.00,0.70
4733.00,0.70
4732.00,0.70
4731.00,0.70
4730.00,0.70
4729.00,0.70
4728.00,0.70
4727.00,0.71
4726.00,0.71
4725.00,0.71
4724.00,0.71
4723.00,0.71
4722.00,0.71
4721.00,0.71
4720.00,0.71
4719.00,0.71
4718.00,0.71
4717.00,0.71
4716.00,0.71
4715.00,0.71
4714.00,0.71
4713.00,0.71
4712.00,0.71
4711.00,0.72
4710.00,0.72
4709.00,0.72
4708.00,0.72
4707.00,0.72
4706.00,0.72
4705.00,0.72
4704.00,0.72
4703.00,0.72
4702.00,0.72
4701.00,0.72
4700.00,0.72
4699.00,0.72
4698.00,0.73
4697.00,0.73
4696.00,0.73
4695.00,0.73
4694.00,0.73
4693.00,0.73
4692.00,0.73
4691.00,0.73
4690.00,0.73
4689.00,0.73
4688.00,0.73
4687.00,0.73
4686.00,0.73
4685.00,0.73
4684.00,0.73
4683.00,0.73
4682.00,0.73
4681.00,0.73
4680.00,0.73
4679.00,0.73
4678.00,0.73
4677.00,0.73
4676.00,0.73
4675.00,0.73
4674.00,0.73
4673.00,0.74
4672.00,0.74
4671.00,0.74
4670.00,0.74
4669.00,0.74
4668.00,0.74
4667.00,0.74
4666.00,0.74
4665.00,0.74
4664.00,0.74
4663.00,0.74
4662.00,0.74
4661.00,0.75
4660.00,0.75
4659.00,0.75
4658.00,0.75
4657.00,0.75
4656.00,0.75
4655.00,0.75
4654.00,0.75
4653.00,0.75
4652.00,0.76
4651.00,0.76
4650.00,0.76
4649.00,0.76
4648.00,0.76
4647.00,0.76
4646.00,0.76
4645.00,0.76
4644.00,0.76
4643.00,0.76
4642.00,0.76
4641.00,0.77
4640.00,0.77
4639.00,0.77
4638.00,0.77
4637.00,0.77
4636.00,0.77
4635.00,0.77
4634.00,0.77
4633.00,0.77
4632.00,0.77
4631.00,0.77
4630.00,0.77
4629.00,0.77
4628.00,0.77
4627.00,0.77
4626.00,0.77
4625.00,0.77
4624.00,0.77
4623.00,0.77
4622.00,0.77
4621.00,0.77
4620.00,0.77
4619.00,0.77
4618.00,0.77
4617.00,0.77
4616.00,0.77
4615.00,0.77
4614.00,0.77
4613.00,0.77
4612.00,0.77
4611.00,0.77
4610.00,0.77
4609.00,0.77
4608.00,0.77
4607.00,0.77
4606.00,0.77
4605.00,0.77
4604.00,0.77
4603.00,0.77
4602.00,0.77
4601.00,0.77
4600.00,0.77
4599.00,0.77
4598.00,0.77
4597.00,0.77
4596.00,0.77
4595.00,0.77
4594.00,0.77
4593.00,0.77
4592.00,0.77
4591.00,0.78
4590.00,0.78
4589.00,0.78
4588.00,0.78
4587.00,0.78
4586.00,0.78
4585.00,0.78
4584.00,0.78
4583.00,0.78
4582.00,0.78
4581.00,0.78
4580.00,0.78
4579.00,0.79
4578.00,0.79
4577.00,0.79
4576.00,0.79
4575.00,0.79
4574.00,0.79
4573.00,0.79
4572.00,0.79
4571.00,0.79
4570.00,0.79
4569.00,0.79
4568.00,0.79
4567.00,0.79
4566.00,0.79
4565.00,0.79
4564.00,0.79
4563.00,0.79
4562.00,0.80
4561.00,0.80
4560.00,0.80
4559.00,0.80
4558.00,0.80
4557.00,0.80
4556.00,0.80
4555.00,0.80
4554.00,0.80
4553.00,0.80
4552.00,0.80
4551.00,0.80
4550.00,0.80
4549.00,0.80
4548.00,0.80
4547.00,0.80
4546.00,0.80
4545.00,0.80
4544.00,0.80
4543.00,0.80
4542.00,0.80
4541.00,0.80
4540.00,0.80
4539.00,0.80
4538.00,0.80
4537.00,0.80
4536.00,0.80
4535.00,0.80
4534.00,0.80
4533.00,0.80
4532.00,0.80
4531.00,0.80
4530.00,0.80
4529.00,0.80
4528.00,0.80
4527.00,0.80
4526.00,0.80
4525.00,0.80
4524.00,0.80
4523.00,0.80
4522.00,0.80
4521.00,0.80
4520.00,0.80
4519.00,0.80
4518.00,0.80
4517.00,0.80
4516.00,0.80
4515.00,0.81
4514.00,0.81
4513.00,0.81
4512.00,0.81
4511.00,0.81
4510.00,0.81
4509.00,0.81
4508.00,0.81
4507.00,0.81
4506.00,0.81
4505.00,0.81
4504.00,0.81
4503.00,0.81
4502.00,0.81
4501.00,0.81
4500.00,0.81
4499.00,0.81
4498.00,0.81
4497.00,0.81
4496.00,0.81
4495.00,0.81
4494.00,0.81
4493.00,0.81
4492.00,0.81
4491.00,0.81
4490.00,0.81
4489.00,0.81
4488.00,0.81
4487.00,0.81
4486.00,0.81
4485.00,0.80
4484.00,0.80
4483.00,0.80
4482.00,0.80
4481.00,0.80
4480.00,0.80
4479.00,0.80
4478.00,0.80
4477.00,0.80
4476.00,0.79
4475.00,0.79
4474.00,0.79
4473.00,0.79
4472.00,0.79
4471.00,0.79
4470.00,0.79
4469.00,0.79
4468.00,0.79
4467.00,0.79
4466.00,0.79
4465.00,0.79
4464.00,0.79
4463.00,0.79
4462.00,0.79
4461.00,0.79
4460.00,0.79
4459.00,0.79
4458.00,0.79
4457.00,0.79
4456.00,0.79
4455.00,0.79
4454.00,0.78
4453.00,0.78
4452.00,0.78
4451.00,0.78
4450.00,0.78
4449.00,0.78
4448.00,0.78
4447.00,0.78
4446.00,0.78
4445.00,0.78
4444.00,0.77
4443.00,0.77
4442.00,0.77
4441.00,0.77
4440.00,0.77
4439.00,0.77
4438.00,0.77
4437.00,0.77
4436.00,0.77
4435.00,0.77
4434.00,0.77
4433.00,0.77
4432.00,0.77
4431.00,0.77
4430.00,0.76
4429.00,0.76
4428.00,0.76
4427.00,0.76
4426.00,0.76
4425.00,0.76
4424.00,0.76
4423.00,0.76
4422.00,0.76
4421.00,0.76
4420.00,0.76
4419.00,0.76
4418.00,0.76
4417.00,0.76
4416.00,0.76
4415.00,0.76
4414.00,0.76
4413.00,0.76
4412.00,0.76
4411.00,0.76
4410.00,0.76
4409.00,0.76
4408.00,0.76
4407.00,0.76
4406.00,0.76
4405.00,0.76
4404.00,0.76
4403.00,0.76
4402.00,0.76
4401.00,0.76
4400.00,0.76
4399.00,0.76
4398.00,0.76
4397.00,0.76
4396.00,0.76
4395.00,0.76
4394.00,0.76
4393.00,0.77
4392.00,0.77
4391.00,0.77
4390.00,0.77
4389.00,0.77
4388.00,0.77
4387.00,0.77
4386.00,0.77
4385.00,0.78
4384.00,0.78
4383.00,0.78
4382.00,0.78
4381.00,0.78
4380.00,0.78
4379.00,0.78
4378.00,0.78
4377.00,0.78
4376.00,0.78
4375.00,0.78
4374.00,0.78
4373.00,0.78
4372.00,0.78
4371.00,0.78
4370.00,0.78
4369.00,0.78
4368.00,0.78
4367.00,0.78
4366.00,0.78
4365.00,0.78
4364.00,0.78
4363.00,0.78
4362.00,0.78
4361.00,0.78
4360.00,0.78
4359.00,0.78
4358.00,0.78
4357.00,0.78
4356.00,0.78
4355.00,0.78
4354.00,0.78
4353.00,0.78
4352.00,0.78
4351.00,0.78
4350.00,0.78
4349.00,0.78
4348.00,0.78
4347.00,0.78
4346.00,0.78
4345.00,0.78
4344.00,0.78
4343.00,0.78
4342.00,0.78
4341.00,0.78
4340.00,0.78
4339.00,0.79
4338.00,0.79
4337.00,0.79
4336.00,0.79
4335.00,0.79
4334.00,0.79
4333.00,0.79
4332.00,0.79
4331.00,0.79
4330.00,0.79
4329.00,0.79
4328.00,0.79
4327.00,0.79
4326.00,0.79
4325.00,0.79
4324.00,0.79
4323.00,0.79
4322.00,0.79
4321.00,0.79
4320.00,0.80
4319.00,0.80
4318.00,0.80
4317.00,0.80
4316.00,0.80
4315.00,0.80
4314.00,0.80
4313.00,0.80
4312.00,0.80
4311.00,0.80
4310.00,0.80
4309.00,0.80
4308.00,0.80
4307.00,0.80
4306.00,0.80
4305.00,0.80
4304.00,0.80
4303.00,0.80
4302.00,0.80
4301.00,0.80
4300.00,0.80
4299.00,0.80
4298.00,0.81
4297.00,0.81
4296.00,0.81
4295.00,0.81
4294.00,0.81
4293.00,0.81
4292.00,0.81
4291.00,0.81
4290.00,0.81
4289.00,0.81
4288.00,0.82
4287.00,0.82
4286.00,0.82
4285.00,0.82
4284.00,0.82
4283.00,0.82
4282.00,0.82
4281.00,0.82
4280.00,0.82
4279.00,0.82
4278.00,0.82
4277.00,0.82
4276.00,0.82
4275.00,0.82
4274.00,0.82
4273.00,0.82
4272.00,0.82
4271.00,0.82
4270.00,0.82
4269.00,0.82
4268.00,0.82
4267.00,0.82
4266.00,0.82
4265.00,0.82
4264.00,0.82
4263.00,0.82
4262.00,0.82
4261.00,0.82
4260.00,0.82
4259.00,0.82
4258.00,0.82
4257.00,0.82
4256.00,0.82
4255.00,0.82
4254.00,0.82
4253.00,0.82
4252.00,0.82
4251.00,0.82
4250.00,0.82
4249.00,0.82
4248.00,0.82
4247.00,0.82
4246.00,0.82
4245.00,0.82
4244.00,0.82
4243.00,0.82
4242.00,0.82
4241.00,0.83
4240.00,0.83
4239.00,0.83
4238.00,0.83
4237.00,0.83
4236.00,0.83
4235.00,0.83
4234.00,0.83
4233.00,0.83
4232.00,0.83
4231.00,0.83
4230.00,0.83
4229.00,0.83
4228.00,0.83
4227.00,0.83
4226.00,0.83
4225.00,0.83
4224.00,0.83
4223.00,0.83
4222.00,0.83
4221.00,0.83
4220.00,0.83
4219.00,0.83
4218.00,0.83
4217.00,0.83
4216.00,0.83
4215.00,0.84
4214.00,0.84
4213.00,0.84
4212.00,0.84
4211.00,0.84
4210.00,0.84
4209.00,0.84
4208.00,0.84
4207.00,0.84
4206.00,0.84
4205.00,0.84
4204.00,0.84
4203.00,0.84
4202.00,0.84
4201.00,0.84
4200.00,0.84
4199.00,0.84
4198.00,0.84
4197.00,0.84
4196.00,0.84
4195.00,0.84
4194.00,0.84
4193.00,0.84
4192.00,0.84
4191.00,0.84
4190.00,0.84
4189.00,0.85
4188.00,0.85
4187.00,0.85
4186.00,0.85
4185.00,0.85
4184.00,0.85
4183.00,0.85
4182.00,0.85
4181.00,0.85
4180.00,0.85
4179.00,0.85
4178.00,0.85
4177.00,0.85
4176.00,0.85
4175.00,0.85
4174.00,0.85
4173.00,0.85
4172.00,0.85
4171.00,0.85
4170.00,0.85
4169.00,0.85
4168.00,0.85
4167.00,0.85
4166.00,0.85
4165.00,0.85
4164.00,0.85
4163.00,0.85
4162.00,0.85
4161.00,0.85
4160.00,0.85
4159.00,0.85
4158.00,0.85
4157.00,0.85
4156.00,0.85
4155.00,0.85
4154.00,0.85
4153.00,0.85
4152.00,0.85
4151.00,0.85
4150.00,0.85
4149.00,0.85
4148.00,0.85
4147.00,0.85
4146.00,0.85
4145.00,0.85
4144.00,0.85
4143.00,0.85
4142.00,0.86
4141.00,0.86
4140.00,0.86
4139.00,0.86
4138.00,0.86
4137.00,0.86
4136.00,0.86
4135.00,0.86
4134.00,0.86
4133.00,0.86
4132.00,0.86
4131.00,0.86
4130.00,0.86
4129.00,0.86
4128.00,0.86
4127.00,0.86
4126.00,0.86
4125.00,0.86
4124.00,0.86
4123.00,0.86
4122.00,0.86
4121.00,0.86
4120.00,0.86
4119.00,0.86
4118.00,0.86
4117.00,0.86
4116.00,0.87
4115.00,0.87
4114.00,0.87
4113.00,0.87
4112.00,0.87
4111.00,0.87
4110.00,0.87
4109.00,0.87
4108.00,0.87
4107.00,0.87
4106.00,0.88
4105.00,0.88
4104.00,0.88
4103.00,0.88
4102.00,0.88
4101.00,0.88
4100.00,0.88
4099.00,0.88
4098.00,0.88
4097.00,0.88
4096.00,0.88
4095.00,0.88
4094.00,0.88
4093.00,0.88
4092.00,0.88
4091.00,0.88
4090.00,0.88
4089.00,0.88
4088.00,0.88
4087.00,0.88
4086.00,0.88
4085.00,0.88
4084.00,0.88
4083.00,0.88
4082.00,0.88
4081.00,0.88
4080.00,0.88
4079.00,0.88
4078.00,0.88
4077.00,0.88
4076.00,0.88
4075.00,0.88
4074.00,0.88
4073.00,0.88
4072.00,0.88
4071.00,0.88
4070.00,0.88
4069.00,0.88
4068.00,0.88
4067.00,0.89
4066.00,0.89
4065.00,0.89
4064.00,0.89
4063.00,0.89
4062.00,0.89
4061.00,0.89
4060.00,0.89
4059.00,0.89
4058.00,0.89
4057.00,0.89
4056.00,0.89
4055.00,0.89
4054.00,0.89
4053.00,0.89
4052.00,0.89
4051.00,0.89
4050.00,0.89
4049.00,0.89
4048.00,0.89
4047.00,0.89
4046.00,0.89
4045.00,0.89
4044.00,0.89
4043.00,0.89
4042.00,0.90
4041.00,0.90
4040.00,0.90
4039.00,0.90
4038.00,0.90
4037.00,0.90
4036.00,0.90
4035.00,0.90
4034.00,0.90
4033.00,0.90
4032.00,0.90
4031.00,0.90
4030.00,0.90
4029.00,0.90
4028.00,0.90
4027.00,0.90
4026.00,0.90
4025.00,0.90
4024.00,0.90
4023.00,0.90
4022.00,0.90
4021.00,0.90
4020.00,0.90
4019.00,0.90
4018.00,0.90
4017.00,0.90
4016.00,0.90
4015.00,0.90
4014.00,0.90
4013.00,0.90
4012.00,0.90
4011.00,0.90
4010.00,0.90
4009.00,0.90
4008.00,0.90
4007.00,0.90
4006.00,0.90
4005.00,0.90
4004.00,0.90
4003.00,0.90
4002.00,0.90
4001.00,0.91
4000.00,0.91
