创建为新数据集,样品 330 用户 Administrator 日期 星期四, 三月 08 2018
cm-1,%T
10000.00,1.00
9999.00,1.00
9998.00,1.00
9997.00,0.99
9996.00,0.99
9995.00,0.99
9994.00,0.99
9993.00,0.99
9992.00,0.99
9991.00,0.99
9990.00,0.99
9989.00,0.99
9988.00,0.99
9987.00,0.99
9986.00,0.99
9985.00,0.99
9984.00,0.99
9983.00,0.99
9982.00,1.00
9981.00,1.00
9980.00,1.00
9979.00,1.00
9978.00,1.00
9977.00,1.00
9976.00,1.00
9975.00,1.00
9974.00,1.00
9973.00,1.00
9972.00,1.00
9971.00,1.00
9970.00,1.00
9969.00,0.99
9968.00,0.99
9967.00,0.99
9966.00,0.99
9965.00,0.99
9964.00,0.98
9963.00,0.98
9962.00,0.98
9961.00,0.98
9960.00,0.98
9959.00,0.98
9958.00,0.97
9957.00,0.97
9956.00,0.97
9955.00,0.97
9954.00,0.97
9953.00,0.97
9952.00,0.98
9951.00,0.98
9950.00,0.98
9949.00,0.98
9948.00,0.98
9947.00,0.98
9946.00,0.99
9945.00,0.99
9944.00,0.99
9943.00,0.99
9942.00,0.99
9941.00,0.99
9940.00,0.99
9939.00,1.00
9938.00,1.00
9937.00,1.00
9936.00,1.00
9935.00,1.00
9934.00,1.00
9933.00,1.00
9932.00,1.00
9931.00,1.00
9930.00,1.00
9929.00,0.99
9928.00,0.99
9927.00,0.99
9926.00,0.99
9925.00,0.99
9924.00,0.99
9923.00,0.99
9922.00,0.99
9921.00,0.99
9920.00,0.99
9919.00,0.99
9918.00,0.99
9917.00,0.99
9916.00,0.98
9915.00,0.98
9914.00,0.98
9913.00,0.98
9912.00,0.98
9911.00,0.98
9910.00,0.98
9909.00,0.99
9908.00,0.99
9907.00,0.99
9906.00,0.99
9905.00,0.99
9904.00,0.99
9903.00,0.99
9902.00,0.99
9901.00,0.99
9900.00,0.99
9899.00,0.99
9898.00,0.99
9897.00,0.99
9896.00,0.99
9895.00,0.99
9894.00,0.99
9893.00,0.99
9892.00,0.99
9891.00,0.99
9890.00,0.99
9889.00,0.98
9888.00,0.98
9887.00,0.98
9886.00,0.98
9885.00,0.98
9884.00,0.97
9883.00,0.97
9882.00,0.97
9881.00,0.97
9880.00,0.97
9879.00,0.97
9878.00,0.96
9877.00,0.96
9876.00,0.96
9875.00,0.96
9874.00,0.96
9873.00,0.96
9872.00,0.96
9871.00,0.95
9870.00,0.95
9869.00,0.95
9868.00,0.95
9867.00,0.95
9866.00,0.95
9865.00,0.95
9864.00,0.95
9863.00,0.95
9862.00,0.95
9861.00,0.95
9860.00,0.95
9859.00,0.95
9858.00,0.95
9857.00,0.95
9856.00,0.95
9855.00,0.95
9854.00,0.96
9853.00,0.96
9852.00,0.96
9851.00,0.96
9850.00,0.96
9849.00,0.96
9848.00,0.96
9847.00,0.96
9846.00,0.96
9845.00,0.96
9844.00,0.96
9843.00,0.97
9842.00,0.97
9841.00,0.97
9840.00,0.97
9839.00,0.97
9838.00,0.97
9837.00,0.97
9836.00,0.97
9835.00,0.97
9834.00,0.98
9833.00,0.98
9832.00,0.98
9831.00,0.98
9830.00,0.99
9829.00,0.99
9828.00,0.99
9827.00,0.99
9826.00,0.99
9825.00,0.99
9824.00,1.00
9823.00,1.00
9822.00,1.00
9821.00,1.00
9820.00,1.00
9819.00,0.99
9818.00,0.99
9817.00,0.99
9816.00,0.99
9815.00,0.99
9814.00,0.98
9813.00,0.98
9812.00,0.98
9811.00,0.97
9810.00,0.97
9809.00,0.97
9808.00,0.96
9807.00,0.96
9806.00,0.96
9805.00,0.96
9804.00,0.95
9803.00,0.95
9802.00,0.95
9801.00,0.95
9800.00,0.95
9799.00,0.95
9798.00,0.95
9797.00,0.95
9796.00,0.95
9795.00,0.95
9794.00,0.95
9793.00,0.95
9792.00,0.95
9791.00,0.95
9790.00,0.95
9789.00,0.95
9788.00,0.95
9787.00,0.95
9786.00,0.95
9785.00,0.95
9784.00,0.95
9783.00,0.95
9782.00,0.95
9781.00,0.96
9780.00,0.96
9779.00,0.96
9778.00,0.96
9777.00,0.96
9776.00,0.96
9775.00,0.96
9774.00,0.96
9773.00,0.97
9772.00,0.97
9771.00,0.97
9770.00,0.97
9769.00,0.97
9768.00,0.97
9767.00,0.97
9766.00,0.97
9765.00,0.97
9764.00,0.97
9763.00,0.98
9762.00,0.97
9761.00,0.97
9760.00,0.97
9759.00,0.97
9758.00,0.97
9757.00,0.97
9756.00,0.97
9755.00,0.97
9754.00,0.97
9753.00,0.96
9752.00,0.96
9751.00,0.96
9750.00,0.96
9749.00,0.96
9748.00,0.96
9747.00,0.96
9746.00,0.96
9745.00,0.96
9744.00,0.96
9743.00,0.96
9742.00,0.96
9741.00,0.96
9740.00,0.97
9739.00,0.97
9738.00,0.97
9737.00,0.98
9736.00,0.98
9735.00,0.98
9734.00,0.99
9733.00,0.99
9732.00,0.99
9731.00,0.99
9730.00,0.99
9729.00,1.00
9728.00,1.00
9727.00,1.00
9726.00,1.00
9725.00,0.99
9724.00,0.99
9723.00,0.99
9722.00,0.99
9721.00,0.99
9720.00,0.99
9719.00,0.99
9718.00,0.98
9717.00,0.98
9716.00,0.98
9715.00,0.98
9714.00,0.98
9713.00,0.98
9712.00,0.98
9711.00,0.98
9710.00,0.98
9709.00,0.98
9708.00,0.98
9707.00,0.98
9706.00,0.98
9705.00,0.98
9704.00,0.97
9703.00,0.97
9702.00,0.97
9701.00,0.97
9700.00,0.97
9699.00,0.97
9698.00,0.97
9697.00,0.97
9696.00,0.97
9695.00,0.97
9694.00,0.96
9693.00,0.96
9692.00,0.96
9691.00,0.96
9690.00,0.96
9689.00,0.96
9688.00,0.97
9687.00,0.97
9686.00,0.97
9685.00,0.97
9684.00,0.97
9683.00,0.97
9682.00,0.97
9681.00,0.97
9680.00,0.98
9679.00,0.98
9678.00,0.98
9677.00,0.98
9676.00,0.98
9675.00,0.98
9674.00,0.99
9673.00,0.99
9672.00,0.99
9671.00,0.99
9670.00,0.99
9669.00,0.99
9668.00,0.99
9667.00,0.99
9666.00,0.99
9665.00,0.99
9664.00,0.99
9663.00,0.99
9662.00,0.99
9661.00,0.99
9660.00,0.99
9659.00,0.99
9658.00,0.98
9657.00,0.98
9656.00,0.98
9655.00,0.98
9654.00,0.97
9653.00,0.97
9652.00,0.97
9651.00,0.96
9650.00,0.96
9649.00,0.96
9648.00,0.96
9647.00,0.96
9646.00,0.95
9645.00,0.95
9644.00,0.95
9643.00,0.95
9642.00,0.95
9641.00,0.96
9640.00,0.96
9639.00,0.96
9638.00,0.96
9637.00,0.96
9636.00,0.96
9635.00,0.97
9634.00,0.97
9633.00,0.97
9632.00,0.97
9631.00,0.97
9630.00,0.98
9629.00,0.98
9628.00,0.98
9627.00,0.98
9626.00,0.98
9625.00,0.98
9624.00,0.98
9623.00,0.98
9622.00,0.98
9621.00,0.98
9620.00,0.98
9619.00,0.97
9618.00,0.97
9617.00,0.97
9616.00,0.97
9615.00,0.97
9614.00,0.97
9613.00,0.96
9612.00,0.96
9611.00,0.96
9610.00,0.96
9609.00,0.96
9608.00,0.96
9607.00,0.96
9606.00,0.96
9605.00,0.96
9604.00,0.96
9603.00,0.96
9602.00,0.95
9601.00,0.95
9600.00,0.95
9599.00,0.95
9598.00,0.95
9597.00,0.95
9596.00,0.95
9595.00,0.95
9594.00,0.95
9593.00,0.95
9592.00,0.95
9591.00,0.95
9590.00,0.95
9589.00,0.96
9588.00,0.96
9587.00,0.96
9586.00,0.96
9585.00,0.96
9584.00,0.96
9583.00,0.96
9582.00,0.96
9581.00,0.96
9580.00,0.96
9579.00,0.96
9578.00,0.96
9577.00,0.96
9576.00,0.96
9575.00,0.96
9574.00,0.96
9573.00,0.96
9572.00,0.96
9571.00,0.96
9570.00,0.96
9569.00,0.97
9568.00,0.97
9567.00,0.97
9566.00,0.97
9565.00,0.97
9564.00,0.97
9563.00,0.97
9562.00,0.97
9561.00,0.98
9560.00,0.98
9559.00,0.98
9558.00,0.98
9557.00,0.98
9556.00,0.97
9555.00,0.97
9554.00,0.97
9553.00,0.97
9552.00,0.97
9551.00,0.97
9550.00,0.97
9549.00,0.97
9548.00,0.96
9547.00,0.96
9546.00,0.96
9545.00,0.96
9544.00,0.96
9543.00,0.96
9542.00,0.96
9541.00,0.96
9540.00,0.96
9539.00,0.97
9538.00,0.97
9537.00,0.97
9536.00,0.97
9535.00,0.97
9534.00,0.97
9533.00,0.97
9532.00,0.97
9531.00,0.97
9530.00,0.97
9529.00,0.97
9528.00,0.97
9527.00,0.97
9526.00,0.97
9525.00,0.97
9524.00,0.97
9523.00,0.96
9522.00,0.96
9521.00,0.96
9520.00,0.96
9519.00,0.96
9518.00,0.95
9517.00,0.95
9516.00,0.95
9515.00,0.95
9514.00,0.95
9513.00,0.95
9512.00,0.95
9511.00,0.95
9510.00,0.95
9509.00,0.95
9508.00,0.95
9507.00,0.96
9506.00,0.96
9505.00,0.96
9504.00,0.96
9503.00,0.96
9502.00,0.96
9501.00,0.96
9500.00,0.96
9499.00,0.96
9498.00,0.96
9497.00,0.96
9496.00,0.96
9495.00,0.96
9494.00,0.96
9493.00,0.96
9492.00,0.96
9491.00,0.96
9490.00,0.96
9489.00,0.96
9488.00,0.96
9487.00,0.96
9486.00,0.96
9485.00,0.96
9484.00,0.96
9483.00,0.96
9482.00,0.96
9481.00,0.96
9480.00,0.96
9479.00,0.96
9478.00,0.96
9477.00,0.95
9476.00,0.95
9475.00,0.95
9474.00,0.95
9473.00,0.95
9472.00,0.95
9471.00,0.95
9470.00,0.95
9469.00,0.95
9468.00,0.95
9467.00,0.95
9466.00,0.95
9465.00,0.95
9464.00,0.95
9463.00,0.95
9462.00,0.95
9461.00,0.95
9460.00,0.95
9459.00,0.95
9458.00,0.95
9457.00,0.95
9456.00,0.95
9455.00,0.95
9454.00,0.95
9453.00,0.95
9452.00,0.96
9451.00,0.96
9450.00,0.96
9449.00,0.96
9448.00,0.96
9447.00,0.96
9446.00,0.96
9445.00,0.96
9444.00,0.97
9443.00,0.97
9442.00,0.97
9441.00,0.97
9440.00,0.97
9439.00,0.97
9438.00,0.97
9437.00,0.97
9436.00,0.97
9435.00,0.97
9434.00,0.97
9433.00,0.97
9432.00,0.97
9431.00,0.96
9430.00,0.96
9429.00,0.96
9428.00,0.96
9427.00,0.96
9426.00,0.96
9425.00,0.96
9424.00,0.95
9423.00,0.95
9422.00,0.95
9421.00,0.95
9420.00,0.95
9419.00,0.95
9418.00,0.95
9417.00,0.95
9416.00,0.95
9415.00,0.95
9414.00,0.95
9413.00,0.95
9412.00,0.96
9411.00,0.96
9410.00,0.96
9409.00,0.96
9408.00,0.96
9407.00,0.96
9406.00,0.96
9405.00,0.96
9404.00,0.96
9403.00,0.96
9402.00,0.96
9401.00,0.96
9400.00,0.96
9399.00,0.97
9398.00,0.97
9397.00,0.97
9396.00,0.97
9395.00,0.97
9394.00,0.97
9393.00,0.97
9392.00,0.97
9391.00,0.97
9390.00,0.97
9389.00,0.97
9388.00,0.97
9387.00,0.97
9386.00,0.97
9385.00,0.97
9384.00,0.97
9383.00,0.97
9382.00,0.97
9381.00,0.97
9380.00,0.97
9379.00,0.97
9378.00,0.97
9377.00,0.97
9376.00,0.97
9375.00,0.97
9374.00,0.97
9373.00,0.97
9372.00,0.98
9371.00,0.98
9370.00,0.98
9369.00,0.98
9368.00,0.98
9367.00,0.98
9366.00,0.98
9365.00,0.98
9364.00,0.98
9363.00,0.98
9362.00,0.98
9361.00,0.98
9360.00,0.98
9359.00,0.98
9358.00,0.98
9357.00,0.99
9356.00,0.99
9355.00,0.99
9354.00,0.99
9353.00,0.99
9352.00,0.99
9351.00,0.99
9350.00,0.99
9349.00,0.99
9348.00,0.99
9347.00,0.99
9346.00,1.00
9345.00,1.00
9344.00,1.00
9343.00,1.00
9342.00,1.00
9341.00,1.00
9340.00,1.00
9339.00,1.00
9338.00,0.99
9337.00,0.99
9336.00,0.99
9335.00,0.99
9334.00,0.99
9333.00,0.98
9332.00,0.98
9331.00,0.98
9330.00,0.98
9329.00,0.97
9328.00,0.97
9327.00,0.97
9326.00,0.97
9325.00,0.97
9324.00,0.96
9323.00,0.96
9322.00,0.96
9321.00,0.96
9320.00,0.96
9319.00,0.96
9318.00,0.96
9317.00,0.95
9316.00,0.95
9315.00,0.95
9314.00,0.95
9313.00,0.95
9312.00,0.95
9311.00,0.95
9310.00,0.95
9309.00,0.95
9308.00,0.95
9307.00,0.94
9306.00,0.94
9305.00,0.94
9304.00,0.94
9303.00,0.94
9302.00,0.94
9301.00,0.95
9300.00,0.95
9299.00,0.95
9298.00,0.95
9297.00,0.95
9296.00,0.95
9295.00,0.95
9294.00,0.95
9293.00,0.95
9292.00,0.95
9291.00,0.95
9290.00,0.95
9289.00,0.95
9288.00,0.96
9287.00,0.96
9286.00,0.96
9285.00,0.96
9284.00,0.96
9283.00,0.96
9282.00,0.96
9281.00,0.96
9280.00,0.96
9279.00,0.97
9278.00,0.97
9277.00,0.97
9276.00,0.97
9275.00,0.97
9274.00,0.97
9273.00,0.98
9272.00,0.98
9271.00,0.98
9270.00,0.98
9269.00,0.98
9268.00,0.98
9267.00,0.98
9266.00,0.98
9265.00,0.98
9264.00,0.98
9263.00,0.98
9262.00,0.98
9261.00,0.98
9260.00,0.98
9259.00,0.98
9258.00,0.98
9257.00,0.98
9256.00,0.98
9255.00,0.98
9254.00,0.98
9253.00,0.98
9252.00,0.98
9251.00,0.97
9250.00,0.97
9249.00,0.97
9248.00,0.97
9247.00,0.97
9246.00,0.97
9245.00,0.97
9244.00,0.97
9243.00,0.98
9242.00,0.98
9241.00,0.98
9240.00,0.98
9239.00,0.98
9238.00,0.98
9237.00,0.98
9236.00,0.99
9235.00,0.99
9234.00,0.99
9233.00,0.99
9232.00,0.99
9231.00,0.99
9230.00,0.99
9229.00,0.99
9228.00,0.99
9227.00,0.99
9226.00,0.99
9225.00,0.98
9224.00,0.98
9223.00,0.98
9222.00,0.98
9221.00,0.98
9220.00,0.98
9219.00,0.97
9218.00,0.97
9217.00,0.97
9216.00,0.97
9215.00,0.97
9214.00,0.97
9213.00,0.97
9212.00,0.97
9211.00,0.97
9210.00,0.97
9209.00,0.97
9208.00,0.97
9207.00,0.97
9206.00,0.97
9205.00,0.98
9204.00,0.98
9203.00,0.98
9202.00,0.98
9201.00,0.98
9200.00,0.98
9199.00,0.98
9198.00,0.99
9197.00,0.99
9196.00,0.99
9195.00,0.99
9194.00,0.99
9193.00,0.99
9192.00,0.99
9191.00,0.99
9190.00,0.99
9189.00,0.99
9188.00,0.99
9187.00,0.99
9186.00,0.99
9185.00,0.99
9184.00,0.99
9183.00,0.99
9182.00,0.99
9181.00,0.99
9180.00,0.99
9179.00,0.99
9178.00,0.99
9177.00,0.99
9176.00,0.99
9175.00,0.99
9174.00,1.00
9173.00,1.00
9172.00,1.00
9171.00,1.00
9170.00,1.00
9169.00,1.00
9168.00,1.00
9167.00,1.00
9166.00,1.00
9165.00,1.00
9164.00,1.00
9163.00,1.00
9162.00,1.00
9161.00,1.00
9160.00,0.99
9159.00,0.99
9158.00,0.99
9157.00,0.99
9156.00,0.99
9155.00,0.99
9154.00,0.99
9153.00,0.99
9152.00,0.99
9151.00,0.99
9150.00,0.99
9149.00,0.99
9148.00,0.98
9147.00,0.98
9146.00,0.98
9145.00,0.98
9144.00,0.98
9143.00,0.98
9142.00,0.98
9141.00,0.98
9140.00,0.98
9139.00,0.98
9138.00,0.98
9137.00,0.98
9136.00,0.98
9135.00,0.98
9134.00,0.98
9133.00,0.98
9132.00,0.98
9131.00,0.98
9130.00,0.98
9129.00,0.98
9128.00,0.98
9127.00,0.98
9126.00,0.98
9125.00,0.98
9124.00,0.98
9123.00,0.98
9122.00,0.98
9121.00,0.98
9120.00,0.99
9119.00,0.99
9118.00,0.99
9117.00,0.99
9116.00,0.99
9115.00,0.99
9114.00,0.99
9113.00,0.99
9112.00,0.99
9111.00,1.00
9110.00,1.00
9109.00,1.00
9108.00,1.00
9107.00,1.00
9106.00,1.00
9105.00,0.99
9104.00,0.99
9103.00,0.99
9102.00,0.99
9101.00,0.99
9100.00,0.99
9099.00,0.98
9098.00,0.98
9097.00,0.98
9096.00,0.98
9095.00,0.98
9094.00,0.98
9093.00,0.97
9092.00,0.97
9091.00,0.97
9090.00,0.97
9089.00,0.97
9088.00,0.98
9087.00,0.98
9086.00,0.98
9085.00,0.98
9084.00,0.98
9083.00,0.98
9082.00,0.99
9081.00,0.99
9080.00,0.99
9079.00,0.99
9078.00,0.99
9077.00,0.99
9076.00,0.99
9075.00,0.99
9074.00,0.99
9073.00,0.99
9072.00,0.99
9071.00,0.99
9070.00,0.99
9069.00,0.99
9068.00,0.98
9067.00,0.98
9066.00,0.98
9065.00,0.98
9064.00,0.98
9063.00,0.97
9062.00,0.97
9061.00,0.97
9060.00,0.97
9059.00,0.97
9058.00,0.97
9057.00,0.97
9056.00,0.96
9055.00,0.96
9054.00,0.96
9053.00,0.96
9052.00,0.96
9051.00,0.96
9050.00,0.96
9049.00,0.96
9048.00,0.96
9047.00,0.96
9046.00,0.95
9045.00,0.95
9044.00,0.95
9043.00,0.96
9042.00,0.96
9041.00,0.96
9040.00,0.96
9039.00,0.96
9038.00,0.96
9037.00,0.96
9036.00,0.96
9035.00,0.96
9034.00,0.97
9033.00,0.97
9032.00,0.97
9031.00,0.97
9030.00,0.97
9029.00,0.97
9028.00,0.98
9027.00,0.98
9026.00,0.98
9025.00,0.98
9024.00,0.98
9023.00,0.98
9022.00,0.98
9021.00,0.98
9020.00,0.98
9019.00,0.98
9018.00,0.98
9017.00,0.98
9016.00,0.98
9015.00,0.98
9014.00,0.98
9013.00,0.98
9012.00,0.98
9011.00,0.98
9010.00,0.97
9009.00,0.97
9008.00,0.97
9007.00,0.97
9006.00,0.97
9005.00,0.97
9004.00,0.97
9003.00,0.97
9002.00,0.97
9001.00,0.97
9000.00,0.97
8999.00,0.97
8998.00,0.97
8997.00,0.97
8996.00,0.98
8995.00,0.98
8994.00,0.98
8993.00,0.98
8992.00,0.98
8991.00,0.98
8990.00,0.99
8989.00,0.99
8988.00,0.99
8987.00,0.99
8986.00,0.99
8985.00,0.99
8984.00,0.99
8983.00,0.99
8982.00,0.99
8981.00,0.99
8980.00,0.99
8979.00,0.98
8978.00,0.98
8977.00,0.98
8976.00,0.98
8975.00,0.98
8974.00,0.97
8973.00,0.97
8972.00,0.97
8971.00,0.97
8970.00,0.97
8969.00,0.97
8968.00,0.96
8967.00,0.96
8966.00,0.96
8965.00,0.96
8964.00,0.96
8963.00,0.96
8962.00,0.96
8961.00,0.96
8960.00,0.96
8959.00,0.96
8958.00,0.96
8957.00,0.96
8956.00,0.96
8955.00,0.96
8954.00,0.96
8953.00,0.96
8952.00,0.96
8951.00,0.96
8950.00,0.96
8949.00,0.96
8948.00,0.96
8947.00,0.96
8946.00,0.96
8945.00,0.96
8944.00,0.96
8943.00,0.96
8942.00,0.96
8941.00,0.96
8940.00,0.96
8939.00,0.96
8938.00,0.96
8937.00,0.96
8936.00,0.96
8935.00,0.96
8934.00,0.96
8933.00,0.97
8932.00,0.97
8931.00,0.97
8930.00,0.97
8929.00,0.97
8928.00,0.97
8927.00,0.98
8926.00,0.98
8925.00,0.98
8924.00,0.98
8923.00,0.99
8922.00,0.99
8921.00,0.99
8920.00,0.99
8919.00,0.99
8918.00,0.99
8917.00,1.00
8916.00,1.00
8915.00,1.00
8914.00,1.00
8913.00,1.00
8912.00,1.00
8911.00,0.99
8910.00,0.99
8909.00,0.99
8908.00,0.99
8907.00,0.99
8906.00,0.99
8905.00,0.99
8904.00,0.98
8903.00,0.98
8902.00,0.98
8901.00,0.98
8900.00,0.98
8899.00,0.98
8898.00,0.98
8897.00,0.98
8896.00,0.97
8895.00,0.97
8894.00,0.97
8893.00,0.97
8892.00,0.97
8891.00,0.97
8890.00,0.97
8889.00,0.98
8888.00,0.98
8887.00,0.98
8886.00,0.98
8885.00,0.98
8884.00,0.98
8883.00,0.98
8882.00,0.98
8881.00,0.98
8880.00,0.98
8879.00,0.98
8878.00,0.98
8877.00,0.98
8876.00,0.98
8875.00,0.98
8874.00,0.98
8873.00,0.98
8872.00,0.98
8871.00,0.98
8870.00,0.97
8869.00,0.97
8868.00,0.97
8867.00,0.97
8866.00,0.97
8865.00,0.97
8864.00,0.97
8863.00,0.96
8862.00,0.96
8861.00,0.96
8860.00,0.96
8859.00,0.96
8858.00,0.96
8857.00,0.96
8856.00,0.96
8855.00,0.96
8854.00,0.96
8853.00,0.97
8852.00,0.97
8851.00,0.97
8850.00,0.97
8849.00,0.97
8848.00,0.97
8847.00,0.97
8846.00,0.97
8845.00,0.97
8844.00,0.97
8843.00,0.97
8842.00,0.97
8841.00,0.97
8840.00,0.97
8839.00,0.97
8838.00,0.97
8837.00,0.97
8836.00,0.97
8835.00,0.97
8834.00,0.96
8833.00,0.96
8832.00,0.96
8831.00,0.96
8830.00,0.96
8829.00,0.96
8828.00,0.96
8827.00,0.96
8826.00,0.96
8825.00,0.95
8824.00,0.95
8823.00,0.96
8822.00,0.96
8821.00,0.96
8820.00,0.96
8819.00,0.96
8818.00,0.96
8817.00,0.96
8816.00,0.96
8815.00,0.96
8814.00,0.96
8813.00,0.96
8812.00,0.96
8811.00,0.96
8810.00,0.96
8809.00,0.96
8808.00,0.96
8807.00,0.96
8806.00,0.96
8805.00,0.96
8804.00,0.96
8803.00,0.96
8802.00,0.96
8801.00,0.97
8800.00,0.97
8799.00,0.97
8798.00,0.97
8797.00,0.97
8796.00,0.97
8795.00,0.97
8794.00,0.97
8793.00,0.97
8792.00,0.97
8791.00,0.97
8790.00,0.97
8789.00,0.97
8788.00,0.97
8787.00,0.97
8786.00,0.97
8785.00,0.97
8784.00,0.97
8783.00,0.97
8782.00,0.97
8781.00,0.97
8780.00,0.97
8779.00,0.97
8778.00,0.96
8777.00,0.96
8776.00,0.96
8775.00,0.96
8774.00,0.96
8773.00,0.96
8772.00,0.96
8771.00,0.96
8770.00,0.96
8769.00,0.96
8768.00,0.96
8767.00,0.95
8766.00,0.95
8765.00,0.95
8764.00,0.95
8763.00,0.95
8762.00,0.95
8761.00,0.95
8760.00,0.95
8759.00,0.94
8758.00,0.94
8757.00,0.94
8756.00,0.94
8755.00,0.94
8754.00,0.94
8753.00,0.94
8752.00,0.94
8751.00,0.94
8750.00,0.94
8749.00,0.94
8748.00,0.94
8747.00,0.94
8746.00,0.94
8745.00,0.94
8744.00,0.94
8743.00,0.94
8742.00,0.94
8741.00,0.94
8740.00,0.94
8739.00,0.94
8738.00,0.94
8737.00,0.94
8736.00,0.94
8735.00,0.94
8734.00,0.94
8733.00,0.94
8732.00,0.94
8731.00,0.94
8730.00,0.94
8729.00,0.94
8728.00,0.95
8727.00,0.95
8726.00,0.95
8725.00,0.95
8724.00,0.95
8723.00,0.95
8722.00,0.95
8721.00,0.95
8720.00,0.95
8719.00,0.95
8718.00,0.95
8717.00,0.95
8716.00,0.95
8715.00,0.95
8714.00,0.95
8713.00,0.95
8712.00,0.95
8711.00,0.95
8710.00,0.95
8709.00,0.95
8708.00,0.95
8707.00,0.95
8706.00,0.95
8705.00,0.95
8704.00,0.95
8703.00,0.94
8702.00,0.94
8701.00,0.94
8700.00,0.94
8699.00,0.94
8698.00,0.94
8697.00,0.94
8696.00,0.94
8695.00,0.94
8694.00,0.94
8693.00,0.94
8692.00,0.94
8691.00,0.94
8690.00,0.94
8689.00,0.94
8688.00,0.94
8687.00,0.94
8686.00,0.94
8685.00,0.94
8684.00,0.94
8683.00,0.93
8682.00,0.93
8681.00,0.93
8680.00,0.93
8679.00,0.93
8678.00,0.93
8677.00,0.93
8676.00,0.93
8675.00,0.93
8674.00,0.93
8673.00,0.94
8672.00,0.94
8671.00,0.94
8670.00,0.94
8669.00,0.94
8668.00,0.94
8667.00,0.94
8666.00,0.93
8665.00,0.93
8664.00,0.93
8663.00,0.93
8662.00,0.93
8661.00,0.93
8660.00,0.93
8659.00,0.93
8658.00,0.93
8657.00,0.93
8656.00,0.93
8655.00,0.92
8654.00,0.92
8653.00,0.92
8652.00,0.92
8651.00,0.92
8650.00,0.92
8649.00,0.92
8648.00,0.92
8647.00,0.92
8646.00,0.92
8645.00,0.92
8644.00,0.93
8643.00,0.93
8642.00,0.93
8641.00,0.93
8640.00,0.93
8639.00,0.93
8638.00,0.93
8637.00,0.93
8636.00,0.93
8635.00,0.93
8634.00,0.94
8633.00,0.94
8632.00,0.94
8631.00,0.94
8630.00,0.94
8629.00,0.94
8628.00,0.94
8627.00,0.94
8626.00,0.94
8625.00,0.95
8624.00,0.95
8623.00,0.95
8622.00,0.95
8621.00,0.95
8620.00,0.95
8619.00,0.95
8618.00,0.95
8617.00,0.95
8616.00,0.95
8615.00,0.95
8614.00,0.95
8613.00,0.95
8612.00,0.95
8611.00,0.94
8610.00,0.94
8609.00,0.94
8608.00,0.94
8607.00,0.94
8606.00,0.94
8605.00,0.93
8604.00,0.93
8603.00,0.93
8602.00,0.93
8601.00,0.93
8600.00,0.93
8599.00,0.93
8598.00,0.92
8597.00,0.92
8596.00,0.92
8595.00,0.92
8594.00,0.92
8593.00,0.92
8592.00,0.92
8591.00,0.92
8590.00,0.92
8589.00,0.92
8588.00,0.92
8587.00,0.92
8586.00,0.92
8585.00,0.92
8584.00,0.91
8583.00,0.91
8582.00,0.91
8581.00,0.91
8580.00,0.91
8579.00,0.91
8578.00,0.91
8577.00,0.91
8576.00,0.91
8575.00,0.91
8574.00,0.92
8573.00,0.92
8572.00,0.92
8571.00,0.92
8570.00,0.92
8569.00,0.92
8568.00,0.92
8567.00,0.92
8566.00,0.92
8565.00,0.92
8564.00,0.92
8563.00,0.92
8562.00,0.92
8561.00,0.92
8560.00,0.91
8559.00,0.91
8558.00,0.91
8557.00,0.91
8556.00,0.91
8555.00,0.91
8554.00,0.91
8553.00,0.91
8552.00,0.91
8551.00,0.91
8550.00,0.91
8549.00,0.91
8548.00,0.91
8547.00,0.91
8546.00,0.91
8545.00,0.91
8544.00,0.91
8543.00,0.91
8542.00,0.91
8541.00,0.91
8540.00,0.91
8539.00,0.91
8538.00,0.91
8537.00,0.91
8536.00,0.91
8535.00,0.90
8534.00,0.90
8533.00,0.90
8532.00,0.90
8531.00,0.90
8530.00,0.90
8529.00,0.90
8528.00,0.90
8527.00,0.90
8526.00,0.90
8525.00,0.90
8524.00,0.90
8523.00,0.90
8522.00,0.90
8521.00,0.90
8520.00,0.90
8519.00,0.90
8518.00,0.90
8517.00,0.90
8516.00,0.90
8515.00,0.90
8514.00,0.90
8513.00,0.90
8512.00,0.90
8511.00,0.90
8510.00,0.90
8509.00,0.89
8508.00,0.89
8507.00,0.89
8506.00,0.89
8505.00,0.89
8504.00,0.89
8503.00,0.89
8502.00,0.89
8501.00,0.89
8500.00,0.88
8499.00,0.88
8498.00,0.88
8497.00,0.88
8496.00,0.88
8495.00,0.88
8494.00,0.87
8493.00,0.87
8492.00,0.87
8491.00,0.87
8490.00,0.87
8489.00,0.87
8488.00,0.87
8487.00,0.87
8486.00,0.87
8485.00,0.87
8484.00,0.87
8483.00,0.87
8482.00,0.87
8481.00,0.87
8480.00,0.87
8479.00,0.87
8478.00,0.87
8477.00,0.87
8476.00,0.87
8475.00,0.87
8474.00,0.87
8473.00,0.87
8472.00,0.87
8471.00,0.87
8470.00,0.87
8469.00,0.87
8468.00,0.87
8467.00,0.87
8466.00,0.87
8465.00,0.87
8464.00,0.87
8463.00,0.87
8462.00,0.87
8461.00,0.87
8460.00,0.87
8459.00,0.87
8458.00,0.87
8457.00,0.87
8456.00,0.87
8455.00,0.87
8454.00,0.86
8453.00,0.86
8452.00,0.86
8451.00,0.86
8450.00,0.86
8449.00,0.86
8448.00,0.86
8447.00,0.86
8446.00,0.86
8445.00,0.85
8444.00,0.85
8443.00,0.85
8442.00,0.85
8441.00,0.85
8440.00,0.85
8439.00,0.85
8438.00,0.85
8437.00,0.85
8436.00,0.85
8435.00,0.85
8434.00,0.85
8433.00,0.85
8432.00,0.85
8431.00,0.85
8430.00,0.85
8429.00,0.86
8428.00,0.86
8427.00,0.86
8426.00,0.86
8425.00,0.86
8424.00,0.86
8423.00,0.86
8422.00,0.86
8421.00,0.86
8420.00,0.86
8419.00,0.86
8418.00,0.86
8417.00,0.86
8416.00,0.86
8415.00,0.86
8414.00,0.86
8413.00,0.86
8412.00,0.86
8411.00,0.86
8410.00,0.86
8409.00,0.86
8408.00,0.86
8407.00,0.86
8406.00,0.86
8405.00,0.87
8404.00,0.87
8403.00,0.87
8402.00,0.87
8401.00,0.87
8400.00,0.86
8399.00,0.86
8398.00,0.86
8397.00,0.86
8396.00,0.86
8395.00,0.86
8394.00,0.86
8393.00,0.86
8392.00,0.86
8391.00,0.86
8390.00,0.86
8389.00,0.86
8388.00,0.86
8387.00,0.85
8386.00,0.85
8385.00,0.85
8384.00,0.86
8383.00,0.86
8382.00,0.86
8381.00,0.86
8380.00,0.86
8379.00,0.86
8378.00,0.86
8377.00,0.86
8376.00,0.87
8375.00,0.87
8374.00,0.87
8373.00,0.87
8372.00,0.87
8371.00,0.88
8370.00,0.88
8369.00,0.88
8368.00,0.88
8367.00,0.89
8366.00,0.89
8365.00,0.89
8364.00,0.89
8363.00,0.89
8362.00,0.90
8361.00,0.90
8360.00,0.90
8359.00,0.90
8358.00,0.90
8357.00,0.90
8356.00,0.91
8355.00,0.91
8354.00,0.91
8353.00,0.91
8352.00,0.91
8351.00,0.91
8350.00,0.91
8349.00,0.91
8348.00,0.91
8347.00,0.91
8346.00,0.91
8345.00,0.91
8344.00,0.91
8343.00,0.91
8342.00,0.91
8341.00,0.91
8340.00,0.90
8339.00,0.90
8338.00,0.90
8337.00,0.90
8336.00,0.90
8335.00,0.90
8334.00,0.90
8333.00,0.90
8332.00,0.90
8331.00,0.90
8330.00,0.90
8329.00,0.90
8328.00,0.90
8327.00,0.90
8326.00,0.90
8325.00,0.90
8324.00,0.90
8323.00,0.90
8322.00,0.90
8321.00,0.90
8320.00,0.90
8319.00,0.90
8318.00,0.90
8317.00,0.90
8316.00,0.90
8315.00,0.90
8314.00,0.90
8313.00,0.90
8312.00,0.90
8311.00,0.90
8310.00,0.91
8309.00,0.91
8308.00,0.91
8307.00,0.91
8306.00,0.91
8305.00,0.91
8304.00,0.91
8303.00,0.91
8302.00,0.91
8301.00,0.91
8300.00,0.91
8299.00,0.91
8298.00,0.90
8297.00,0.90
8296.00,0.90
8295.00,0.90
8294.00,0.90
8293.00,0.90
8292.00,0.90
8291.00,0.90
8290.00,0.90
8289.00,0.90
8288.00,0.90
8287.00,0.89
8286.00,0.89
8285.00,0.89
8284.00,0.89
8283.00,0.89
8282.00,0.89
8281.00,0.89
8280.00,0.90
8279.00,0.90
8278.00,0.90
8277.00,0.90
8276.00,0.90
8275.00,0.90
8274.00,0.90
8273.00,0.90
8272.00,0.90
8271.00,0.91
8270.00,0.91
8269.00,0.91
8268.00,0.91
8267.00,0.91
8266.00,0.91
8265.00,0.91
8264.00,0.91
8263.00,0.91
8262.00,0.91
8261.00,0.91
8260.00,0.91
8259.00,0.91
8258.00,0.91
8257.00,0.91
8256.00,0.91
8255.00,0.91
8254.00,0.91
8253.00,0.91
8252.00,0.91
8251.00,0.91
8250.00,0.91
8249.00,0.91
8248.00,0.91
8247.00,0.91
8246.00,0.91
8245.00,0.91
8244.00,0.91
8243.00,0.91
8242.00,0.91
8241.00,0.91
8240.00,0.91
8239.00,0.91
8238.00,0.92
8237.00,0.92
8236.00,0.92
8235.00,0.92
8234.00,0.92
8233.00,0.92
8232.00,0.92
8231.00,0.92
8230.00,0.92
8229.00,0.92
8228.00,0.92
8227.00,0.92
8226.00,0.92
8225.00,0.92
8224.00,0.92
8223.00,0.92
8222.00,0.92
8221.00,0.92
8220.00,0.92
8219.00,0.92
8218.00,0.92
8217.00,0.92
8216.00,0.92
8215.00,0.92
8214.00,0.92
8213.00,0.92
8212.00,0.92
8211.00,0.92
8210.00,0.92
8209.00,0.92
8208.00,0.92
8207.00,0.93
8206.00,0.93
8205.00,0.93
8204.00,0.93
8203.00,0.93
8202.00,0.93
8201.00,0.93
8200.00,0.93
8199.00,0.93
8198.00,0.93
8197.00,0.93
8196.00,0.93
8195.00,0.93
8194.00,0.92
8193.00,0.92
8192.00,0.92
8191.00,0.92
8190.00,0.92
8189.00,0.92
8188.00,0.92
8187.00,0.92
8186.00,0.91
8185.00,0.91
8184.00,0.91
8183.00,0.91
8182.00,0.91
8181.00,0.92
8180.00,0.92
8179.00,0.92
8178.00,0.92
8177.00,0.92
8176.00,0.92
8175.00,0.92
8174.00,0.93
8173.00,0.93
8172.00,0.93
8171.00,0.93
8170.00,0.93
8169.00,0.93
8168.00,0.93
8167.00,0.93
8166.00,0.93
8165.00,0.94
8164.00,0.94
8163.00,0.94
8162.00,0.94
8161.00,0.94
8160.00,0.94
8159.00,0.94
8158.00,0.94
8157.00,0.94
8156.00,0.94
8155.00,0.94
8154.00,0.94
8153.00,0.95
8152.00,0.95
8151.00,0.95
8150.00,0.95
8149.00,0.95
8148.00,0.95
8147.00,0.95
8146.00,0.95
8145.00,0.95
8144.00,0.95
8143.00,0.95
8142.00,0.95
8141.00,0.95
8140.00,0.95
8139.00,0.94
8138.00,0.94
8137.00,0.94
8136.00,0.94
8135.00,0.94
8134.00,0.94
8133.00,0.94
8132.00,0.94
8131.00,0.93
8130.00,0.93
8129.00,0.93
8128.00,0.93
8127.00,0.93
8126.00,0.93
8125.00,0.93
8124.00,0.94
8123.00,0.94
8122.00,0.94
8121.00,0.94
8120.00,0.94
8119.00,0.94
8118.00,0.94
8117.00,0.94
8116.00,0.94
8115.00,0.94
8114.00,0.94
8113.00,0.94
8112.00,0.94
8111.00,0.94
8110.00,0.95
8109.00,0.95
8108.00,0.95
8107.00,0.95
8106.00,0.95
8105.00,0.95
8104.00,0.95
8103.00,0.95
8102.00,0.95
8101.00,0.95
8100.00,0.95
8099.00,0.95
8098.00,0.95
8097.00,0.95
8096.00,0.95
8095.00,0.95
8094.00,0.95
8093.00,0.95
8092.00,0.95
8091.00,0.95
8090.00,0.95
8089.00,0.95
8088.00,0.95
8087.00,0.95
8086.00,0.95
8085.00,0.95
8084.00,0.95
8083.00,0.95
8082.00,0.95
8081.00,0.96
8080.00,0.96
8079.00,0.96
8078.00,0.96
8077.00,0.96
8076.00,0.96
8075.00,0.96
8074.00,0.96
8073.00,0.96
8072.00,0.96
8071.00,0.96
8070.00,0.95
8069.00,0.95
8068.00,0.95
8067.00,0.95
8066.00,0.95
8065.00,0.95
8064.00,0.95
8063.00,0.95
8062.00,0.95
8061.00,0.95
8060.00,0.95
8059.00,0.95
8058.00,0.95
8057.00,0.95
8056.00,0.95
8055.00,0.96
8054.00,0.96
8053.00,0.96
8052.00,0.96
8051.00,0.96
8050.00,0.96
8049.00,0.96
8048.00,0.96
8047.00,0.96
8046.00,0.96
8045.00,0.96
8044.00,0.97
8043.00,0.97
8042.00,0.97
8041.00,0.97
8040.00,0.97
8039.00,0.97
8038.00,0.97
8037.00,0.97
8036.00,0.97
8035.00,0.97
8034.00,0.97
8033.00,0.97
8032.00,0.97
8031.00,0.97
8030.00,0.97
8029.00,0.97
8028.00,0.97
8027.00,0.97
8026.00,0.97
8025.00,0.97
8024.00,0.97
8023.00,0.97
8022.00,0.97
8021.00,0.97
8020.00,0.97
8019.00,0.97
8018.00,0.97
8017.00,0.97
8016.00,0.97
8015.00,0.97
8014.00,0.97
8013.00,0.97
8012.00,0.97
8011.00,0.97
8010.00,0.97
8009.00,0.97
8008.00,0.97
8007.00,0.97
8006.00,0.97
8005.00,0.97
8004.00,0.97
8003.00,0.97
8002.00,0.97
8001.00,0.97
8000.00,0.97
7999.00,0.97
7998.00,0.97
7997.00,0.97
7996.00,0.97
7995.00,0.97
7994.00,0.97
7993.00,0.97
7992.00,0.97
7991.00,0.97
7990.00,0.97
7989.00,0.97
7988.00,0.97
7987.00,0.97
7986.00,0.96
7985.00,0.96
7984.00,0.96
7983.00,0.96
7982.00,0.96
7981.00,0.96
7980.00,0.96
7979.00,0.96
7978.00,0.96
7977.00,0.96
7976.00,0.96
7975.00,0.96
7974.00,0.96
7973.00,0.96
7972.00,0.96
7971.00,0.96
7970.00,0.96
7969.00,0.96
7968.00,0.96
7967.00,0.96
7966.00,0.96
7965.00,0.97
7964.00,0.97
7963.00,0.97
7962.00,0.97
7961.00,0.97
7960.00,0.97
7959.00,0.97
7958.00,0.97
7957.00,0.97
7956.00,0.97
7955.00,0.97
7954.00,0.97
7953.00,0.97
7952.00,0.97
7951.00,0.97
7950.00,0.97
7949.00,0.97
7948.00,0.97
7947.00,0.97
7946.00,0.97
7945.00,0.97
7944.00,0.97
7943.00,0.97
7942.00,0.97
7941.00,0.97
7940.00,0.97
7939.00,0.97
7938.00,0.97
7937.00,0.97
7936.00,0.97
7935.00,0.97
7934.00,0.97
7933.00,0.97
7932.00,0.97
7931.00,0.97
7930.00,0.97
7929.00,0.97
7928.00,0.97
7927.00,0.97
7926.00,0.97
7925.00,0.97
7924.00,0.97
7923.00,0.97
7922.00,0.97
7921.00,0.97
7920.00,0.97
7919.00,0.97
7918.00,0.97
7917.00,0.97
7916.00,0.97
7915.00,0.97
7914.00,0.97
7913.00,0.97
7912.00,0.97
7911.00,0.97
7910.00,0.97
7909.00,0.97
7908.00,0.97
7907.00,0.97
7906.00,0.97
7905.00,0.97
7904.00,0.97
7903.00,0.97
7902.00,0.97
7901.00,0.98
7900.00,0.98
7899.00,0.98
7898.00,0.98
7897.00,0.98
7896.00,0.98
7895.00,0.98
7894.00,0.98
7893.00,0.98
7892.00,0.98
7891.00,0.98
7890.00,0.97
7889.00,0.97
7888.00,0.97
7887.00,0.97
7886.00,0.97
7885.00,0.97
7884.00,0.97
7883.00,0.97
7882.00,0.97
7881.00,0.97
7880.00,0.97
7879.00,0.97
7878.00,0.97
7877.00,0.97
7876.00,0.97
7875.00,0.97
7874.00,0.97
7873.00,0.97
7872.00,0.97
7871.00,0.97
7870.00,0.97
7869.00,0.97
7868.00,0.97
7867.00,0.97
7866.00,0.97
7865.00,0.97
7864.00,0.97
7863.00,0.97
7862.00,0.97
7861.00,0.97
7860.00,0.97
7859.00,0.97
7858.00,0.97
7857.00,0.97
7856.00,0.97
7855.00,0.97
7854.00,0.97
7853.00,0.97
7852.00,0.97
7851.00,0.97
7850.00,0.97
7849.00,0.97
7848.00,0.97
7847.00,0.97
7846.00,0.97
7845.00,0.97
7844.00,0.97
7843.00,0.97
7842.00,0.97
7841.00,0.97
7840.00,0.97
7839.00,0.98
7838.00,0.98
7837.00,0.98
7836.00,0.98
7835.00,0.98
7834.00,0.98
7833.00,0.98
7832.00,0.98
7831.00,0.98
7830.00,0.98
7829.00,0.98
7828.00,0.98
7827.00,0.98
7826.00,0.98
7825.00,0.98
7824.00,0.98
7823.00,0.98
7822.00,0.98
7821.00,0.98
7820.00,0.98
7819.00,0.98
7818.00,0.98
7817.00,0.98
7816.00,0.98
7815.00,0.98
7814.00,0.98
7813.00,0.98
7812.00,0.98
7811.00,0.98
7810.00,0.98
7809.00,0.98
7808.00,0.98
7807.00,0.98
7806.00,0.98
7805.00,0.98
7804.00,0.98
7803.00,0.98
7802.00,0.98
7801.00,0.98
7800.00,0.98
7799.00,0.98
7798.00,0.98
7797.00,0.99
7796.00,0.99
7795.00,0.99
7794.00,0.99
7793.00,0.99
7792.00,0.99
7791.00,0.99
7790.00,0.99
7789.00,0.99
7788.00,0.99
7787.00,0.99
7786.00,0.99
7785.00,1.00
7784.00,1.00
7783.00,1.00
7782.00,1.00
7781.00,1.00
7780.00,1.00
7779.00,1.00
7778.00,1.00
7777.00,1.00
7776.00,1.00
7775.00,1.00
7774.00,1.00
7773.00,1.00
7772.00,1.00
7771.00,1.00
7770.00,1.00
7769.00,1.00
7768.00,1.00
7767.00,0.99
7766.00,0.99
7765.00,0.99
7764.00,0.99
7763.00,0.99
7762.00,0.99
7761.00,0.99
7760.00,0.99
7759.00,0.99
7758.00,0.99
7757.00,0.99
7756.00,0.98
7755.00,0.98
7754.00,0.98
7753.00,0.98
7752.00,0.98
7751.00,0.98
7750.00,0.98
7749.00,0.98
7748.00,0.98
7747.00,0.98
7746.00,0.98
7745.00,0.98
7744.00,0.98
7743.00,0.98
7742.00,0.98
7741.00,0.98
7740.00,0.98
7739.00,0.98
7738.00,0.98
7737.00,0.98
7736.00,0.98
7735.00,0.98
7734.00,0.99
7733.00,0.99
7732.00,0.99
7731.00,0.99
7730.00,0.99
7729.00,0.99
7728.00,0.99
7727.00,0.98
7726.00,0.98
7725.00,0.98
7724.00,0.98
7723.00,0.98
7722.00,0.98
7721.00,0.98
7720.00,0.98
7719.00,0.98
7718.00,0.98
7717.00,0.98
7716.00,0.98
7715.00,0.98
7714.00,0.98
7713.00,0.98
7712.00,0.98
7711.00,0.98
7710.00,0.98
7709.00,0.98
7708.00,0.98
7707.00,0.98
7706.00,0.98
7705.00,0.98
7704.00,0.98
7703.00,0.98
7702.00,0.98
7701.00,0.99
7700.00,0.99
7699.00,0.99
7698.00,0.99
7697.00,0.99
7696.00,0.99
7695.00,0.99
7694.00,0.99
7693.00,1.00
7692.00,1.00
7691.00,1.00
7690.00,1.00
7689.00,1.00
7688.00,1.00
7687.00,1.00
7686.00,1.00
7685.00,1.00
7684.00,1.00
7683.00,1.00
7682.00,1.00
7681.00,1.00
7680.00,1.00
7679.00,1.00
7678.00,1.00
7677.00,1.00
7676.00,1.00
7675.00,1.00
7674.00,1.00
7673.00,1.00
7672.00,0.99
7671.00,0.99
7670.00,0.99
7669.00,0.99
7668.00,0.99
7667.00,0.99
7666.00,0.99
7665.00,0.99
7664.00,0.99
7663.00,0.99
7662.00,0.99
7661.00,0.99
7660.00,0.99
7659.00,0.99
7658.00,0.99
7657.00,0.99
7656.00,0.99
7655.00,0.99
7654.00,0.99
7653.00,0.99
7652.00,0.98
7651.00,0.98
7650.00,0.98
7649.00,0.98
7648.00,0.98
7647.00,0.98
7646.00,0.98
7645.00,0.98
7644.00,0.98
7643.00,0.98
7642.00,0.98
7641.00,0.98
7640.00,0.98
7639.00,0.98
7638.00,0.98
7637.00,0.98
7636.00,0.98
7635.00,0.98
7634.00,0.98
7633.00,0.98
7632.00,0.98
7631.00,0.98
7630.00,0.98
7629.00,0.99
7628.00,0.99
7627.00,0.99
7626.00,0.99
7625.00,0.99
7624.00,0.99
7623.00,0.99
7622.00,0.99
7621.00,0.99
7620.00,0.99
7619.00,0.99
7618.00,0.99
7617.00,0.99
7616.00,0.99
7615.00,0.99
7614.00,0.99
7613.00,0.99
7612.00,0.99
7611.00,0.99
7610.00,0.99
7609.00,0.99
7608.00,0.99
7607.00,0.99
7606.00,0.99
7605.00,0.99
7604.00,0.99
7603.00,0.99
7602.00,0.99
7601.00,0.99
7600.00,0.99
7599.00,0.99
7598.00,0.99
7597.00,0.99
7596.00,0.99
7595.00,0.99
7594.00,0.99
7593.00,0.99
7592.00,0.99
7591.00,0.99
7590.00,0.99
7589.00,0.99
7588.00,0.99
7587.00,0.99
7586.00,0.99
7585.00,0.99
7584.00,0.99
7583.00,0.99
7582.00,0.99
7581.00,0.99
7580.00,0.99
7579.00,0.99
7578.00,0.99
7577.00,0.99
7576.00,0.99
7575.00,0.99
7574.00,0.99
7573.00,0.99
7572.00,0.99
7571.00,0.99
7570.00,0.99
7569.00,0.99
7568.00,0.99
7567.00,0.99
7566.00,0.99
7565.00,0.99
7564.00,0.99
7563.00,0.98
7562.00,0.98
7561.00,0.98
7560.00,0.98
7559.00,0.98
7558.00,0.98
7557.00,0.98
7556.00,0.98
7555.00,0.98
7554.00,0.98
7553.00,0.98
7552.00,0.98
7551.00,0.98
7550.00,0.98
7549.00,0.98
7548.00,0.98
7547.00,0.98
7546.00,0.98
7545.00,0.98
7544.00,0.98
7543.00,0.98
7542.00,0.98
7541.00,0.98
7540.00,0.98
7539.00,0.98
7538.00,0.98
7537.00,0.98
7536.00,0.98
7535.00,0.98
7534.00,0.98
7533.00,0.98
7532.00,0.98
7531.00,0.97
7530.00,0.97
7529.00,0.97
7528.00,0.97
7527.00,0.97
7526.00,0.97
7525.00,0.97
7524.00,0.97
7523.00,0.97
7522.00,0.97
7521.00,0.97
7520.00,0.97
7519.00,0.97
7518.00,0.97
7517.00,0.97
7516.00,0.97
7515.00,0.97
7514.00,0.97
7513.00,0.97
7512.00,0.97
7511.00,0.97
7510.00,0.97
7509.00,0.97
7508.00,0.97
7507.00,0.97
7506.00,0.97
7505.00,0.97
7504.00,0.97
7503.00,0.98
7502.00,0.98
7501.00,0.98
7500.00,0.98
7499.00,0.98
7498.00,0.98
7497.00,0.98
7496.00,0.98
7495.00,0.98
7494.00,0.98
7493.00,0.98
7492.00,0.98
7491.00,0.98
7490.00,0.97
7489.00,0.97
7488.00,0.97
7487.00,0.97
7486.00,0.97
7485.00,0.97
7484.00,0.97
7483.00,0.96
7482.00,0.96
7481.00,0.96
7480.00,0.96
7479.00,0.96
7478.00,0.96
7477.00,0.96
7476.00,0.96
7475.00,0.96
7474.00,0.95
7473.00,0.95
7472.00,0.95
7471.00,0.95
7470.00,0.95
7469.00,0.95
7468.00,0.95
7467.00,0.95
7466.00,0.95
7465.00,0.95
7464.00,0.95
7463.00,0.95
7462.00,0.95
7461.00,0.95
7460.00,0.95
7459.00,0.95
7458.00,0.95
7457.00,0.95
7456.00,0.95
7455.00,0.95
7454.00,0.95
7453.00,0.95
7452.00,0.95
7451.00,0.95
7450.00,0.95
7449.00,0.95
7448.00,0.95
7447.00,0.95
7446.00,0.95
7445.00,0.95
7444.00,0.95
7443.00,0.95
7442.00,0.95
7441.00,0.95
7440.00,0.95
7439.00,0.95
7438.00,0.95
7437.00,0.95
7436.00,0.95
7435.00,0.95
7434.00,0.95
7433.00,0.95
7432.00,0.95
7431.00,0.95
7430.00,0.95
7429.00,0.95
7428.00,0.95
7427.00,0.95
7426.00,0.95
7425.00,0.95
7424.00,0.95
7423.00,0.95
7422.00,0.95
7421.00,0.95
7420.00,0.94
7419.00,0.94
7418.00,0.94
7417.00,0.94
7416.00,0.94
7415.00,0.94
7414.00,0.94
7413.00,0.94
7412.00,0.94
7411.00,0.94
7410.00,0.94
7409.00,0.93
7408.00,0.93
7407.00,0.93
7406.00,0.93
7405.00,0.93
7404.00,0.93
7403.00,0.93
7402.00,0.93
7401.00,0.92
7400.00,0.92
7399.00,0.92
7398.00,0.92
7397.00,0.92
7396.00,0.92
7395.00,0.92
7394.00,0.92
7393.00,0.92
7392.00,0.92
7391.00,0.92
7390.00,0.92
7389.00,0.91
7388.00,0.91
7387.00,0.91
7386.00,0.91
7385.00,0.91
7384.00,0.91
7383.00,0.91
7382.00,0.91
7381.00,0.91
7380.00,0.91
7379.00,0.90
7378.00,0.90
7377.00,0.90
7376.00,0.90
7375.00,0.90
7374.00,0.90
7373.00,0.90
7372.00,0.90
7371.00,0.90
7370.00,0.90
7369.00,0.90
7368.00,0.90
7367.00,0.90
7366.00,0.90
7365.00,0.90
7364.00,0.90
7363.00,0.90
7362.00,0.90
7361.00,0.90
7360.00,0.90
7359.00,0.90
7358.00,0.90
7357.00,0.90
7356.00,0.90
7355.00,0.90
7354.00,0.90
7353.00,0.90
7352.00,0.90
7351.00,0.90
7350.00,0.90
7349.00,0.90
7348.00,0.90
7347.00,0.90
7346.00,0.90
7345.00,0.90
7344.00,0.90
7343.00,0.90
7342.00,0.90
7341.00,0.90
7340.00,0.90
7339.00,0.90
7338.00,0.90
7337.00,0.90
7336.00,0.90
7335.00,0.90
7334.00,0.90
7333.00,0.90
7332.00,0.90
7331.00,0.90
7330.00,0.90
7329.00,0.90
7328.00,0.90
7327.00,0.90
7326.00,0.90
7325.00,0.89
7324.00,0.89
7323.00,0.89
7322.00,0.89
7321.00,0.89
7320.00,0.89
7319.00,0.89
7318.00,0.89
7317.00,0.89
7316.00,0.89
7315.00,0.89
7314.00,0.89
7313.00,0.89
7312.00,0.89
7311.00,0.89
7310.00,0.89
7309.00,0.89
7308.00,0.89
7307.00,0.89
7306.00,0.89
7305.00,0.88
7304.00,0.88
7303.00,0.88
7302.00,0.88
7301.00,0.88
7300.00,0.88
7299.00,0.88
7298.00,0.88
7297.00,0.88
7296.00,0.88
7295.00,0.88
7294.00,0.88
7293.00,0.88
7292.00,0.88
7291.00,0.87
7290.00,0.87
7289.00,0.87
7288.00,0.87
7287.00,0.87
7286.00,0.87
7285.00,0.87
7284.00,0.87
7283.00,0.87
7282.00,0.87
7281.00,0.87
7280.00,0.87
7279.00,0.86
7278.00,0.86
7277.00,0.86
7276.00,0.86
7275.00,0.86
7274.00,0.86
7273.00,0.86
7272.00,0.86
7271.00,0.86
7270.00,0.85
7269.00,0.85
7268.00,0.85
7267.00,0.85
7266.00,0.85
7265.00,0.85
7264.00,0.84
7263.00,0.84
7262.00,0.84
7261.00,0.84
7260.00,0.84
7259.00,0.84
7258.00,0.84
7257.00,0.84
7256.00,0.84
7255.00,0.83
7254.00,0.83
7253.00,0.83
7252.00,0.83
7251.00,0.83
7250.00,0.83
7249.00,0.83
7248.00,0.83
7247.00,0.83
7246.00,0.83
7245.00,0.83
7244.00,0.83
7243.00,0.82
7242.00,0.82
7241.00,0.82
7240.00,0.82
7239.00,0.82
7238.00,0.82
7237.00,0.81
7236.00,0.81
7235.00,0.81
7234.00,0.81
7233.00,0.81
7232.00,0.81
7231.00,0.80
7230.00,0.80
7229.00,0.80
7228.00,0.80
7227.00,0.80
7226.00,0.80
7225.00,0.80
7224.00,0.79
7223.00,0.79
7222.00,0.79
7221.00,0.79
7220.00,0.79
7219.00,0.78
7218.00,0.78
7217.00,0.78
7216.00,0.78
7215.00,0.78
7214.00,0.77
7213.00,0.77
7212.00,0.77
7211.00,0.77
7210.00,0.76
7209.00,0.76
7208.00,0.76
7207.00,0.75
7206.00,0.75
7205.00,0.75
7204.00,0.75
7203.00,0.74
7202.00,0.74
7201.00,0.74
7200.00,0.74
7199.00,0.73
7198.00,0.73
7197.00,0.73
7196.00,0.73
7195.00,0.73
7194.00,0.72
7193.00,0.72
7192.00,0.72
7191.00,0.72
7190.00,0.71
7189.00,0.71
7188.00,0.71
7187.00,0.71
7186.00,0.71
7185.00,0.70
7184.00,0.70
7183.00,0.70
7182.00,0.70
7181.00,0.70
7180.00,0.69
7179.00,0.69
7178.00,0.69
7177.00,0.69
7176.00,0.68
7175.00,0.68
7174.00,0.68
7173.00,0.68
7172.00,0.68
7171.00,0.67
7170.00,0.67
7169.00,0.67
7168.00,0.67
7167.00,0.67
7166.00,0.67
7165.00,0.66
7164.00,0.66
7163.00,0.66
7162.00,0.66
7161.00,0.66
7160.00,0.66
7159.00,0.66
7158.00,0.66
7157.00,0.66
7156.00,0.66
7155.00,0.66
7154.00,0.66
7153.00,0.65
7152.00,0.65
7151.00,0.65
7150.00,0.65
7149.00,0.65
7148.00,0.65
7147.00,0.64
7146.00,0.64
7145.00,0.64
7144.00,0.64
7143.00,0.63
7142.00,0.63
7141.00,0.63
7140.00,0.62
7139.00,0.62
7138.00,0.62
7137.00,0.62
7136.00,0.61
7135.00,0.61
7134.00,0.61
7133.00,0.61
7132.00,0.60
7131.00,0.60
7130.00,0.60
7129.00,0.60
7128.00,0.60
7127.00,0.59
7126.00,0.59
7125.00,0.59
7124.00,0.59
7123.00,0.58
7122.00,0.58
7121.00,0.58
7120.00,0.58
7119.00,0.58
7118.00,0.57
7117.00,0.57
7116.00,0.57
7115.00,0.57
7114.00,0.57
7113.00,0.57
7112.00,0.57
7111.00,0.57
7110.00,0.57
7109.00,0.57
7108.00,0.56
7107.00,0.56
7106.00,0.56
7105.00,0.56
7104.00,0.56
7103.00,0.56
7102.00,0.56
7101.00,0.56
7100.00,0.56
7099.00,0.55
7098.00,0.55
7097.00,0.55
7096.00,0.55
7095.00,0.55
7094.00,0.55
7093.00,0.55
7092.00,0.55
7091.00,0.55
7090.00,0.54
7089.00,0.54
7088.00,0.54
7087.00,0.54
7086.00,0.54
7085.00,0.54
7084.00,0.54
7083.00,0.54
7082.00,0.54
7081.00,0.53
7080.00,0.53
7079.00,0.53
7078.00,0.53
7077.00,0.53
7076.00,0.53
7075.00,0.53
7074.00,0.52
7073.00,0.52
7072.00,0.52
7071.00,0.52
7070.00,0.52
7069.00,0.52
7068.00,0.52
7067.00,0.52
7066.00,0.52
7065.00,0.52
7064.00,0.52
7063.00,0.52
7062.00,0.52
7061.00,0.52
7060.00,0.51
7059.00,0.51
7058.00,0.51
7057.00,0.51
7056.00,0.51
7055.00,0.51
7054.00,0.51
7053.00,0.51
7052.00,0.51
7051.00,0.51
7050.00,0.51
7049.00,0.51
7048.00,0.51
7047.00,0.50
7046.00,0.50
7045.00,0.50
7044.00,0.50
7043.00,0.50
7042.00,0.50
7041.00,0.50
7040.00,0.50
7039.00,0.50
7038.00,0.50
7037.00,0.50
7036.00,0.50
7035.00,0.50
7034.00,0.49
7033.00,0.49
7032.00,0.49
7031.00,0.49
7030.00,0.49
7029.00,0.49
7028.00,0.49
7027.00,0.49
7026.00,0.48
7025.00,0.48
7024.00,0.48
7023.00,0.48
7022.00,0.48
7021.00,0.48
7020.00,0.48
7019.00,0.48
7018.00,0.48
7017.00,0.48
7016.00,0.48
7015.00,0.48
7014.00,0.48
7013.00,0.48
7012.00,0.48
7011.00,0.48
7010.00,0.48
7009.00,0.48
7008.00,0.48
7007.00,0.48
7006.00,0.48
7005.00,0.48
7004.00,0.48
7003.00,0.48
7002.00,0.48
7001.00,0.48
7000.00,0.48
6999.00,0.47
6998.00,0.47
6997.00,0.47
6996.00,0.47
6995.00,0.47
6994.00,0.47
6993.00,0.47
6992.00,0.47
6991.00,0.47
6990.00,0.47
6989.00,0.47
6988.00,0.47
6987.00,0.47
6986.00,0.47
6985.00,0.47
6984.00,0.47
6983.00,0.47
6982.00,0.47
6981.00,0.47
6980.00,0.47
6979.00,0.47
6978.00,0.47
6977.00,0.47
6976.00,0.47
6975.00,0.47
6974.00,0.47
6973.00,0.47
6972.00,0.47
6971.00,0.47
6970.00,0.47
6969.00,0.47
6968.00,0.47
6967.00,0.47
6966.00,0.46
6965.00,0.46
6964.00,0.46
6963.00,0.46
6962.00,0.46
6961.00,0.46
6960.00,0.46
6959.00,0.46
6958.00,0.46
6957.00,0.46
6956.00,0.46
6955.00,0.46
6954.00,0.46
6953.00,0.46
6952.00,0.46
6951.00,0.46
6950.00,0.45
6949.00,0.45
6948.00,0.45
6947.00,0.45
6946.00,0.45
6945.00,0.45
6944.00,0.45
6943.00,0.45
6942.00,0.45
6941.00,0.45
6940.00,0.45
6939.00,0.45
6938.00,0.45
6937.00,0.45
6936.00,0.45
6935.00,0.45
6934.00,0.45
6933.00,0.45
6932.00,0.45
6931.00,0.45
6930.00,0.45
6929.00,0.45
6928.00,0.45
6927.00,0.45
6926.00,0.45
6925.00,0.45
6924.00,0.45
6923.00,0.45
6922.00,0.45
6921.00,0.45
6920.00,0.45
6919.00,0.45
6918.00,0.45
6917.00,0.45
6916.00,0.45
6915.00,0.45
6914.00,0.45
6913.00,0.45
6912.00,0.45
6911.00,0.45
6910.00,0.45
6909.00,0.45
6908.00,0.45
6907.00,0.45
6906.00,0.45
6905.00,0.45
6904.00,0.45
6903.00,0.45
6902.00,0.45
6901.00,0.45
6900.00,0.45
6899.00,0.45
6898.00,0.45
6897.00,0.45
6896.00,0.45
6895.00,0.45
6894.00,0.45
6893.00,0.45
6892.00,0.45
6891.00,0.45
6890.00,0.45
6889.00,0.45
6888.00,0.45
6887.00,0.45
6886.00,0.45
6885.00,0.45
6884.00,0.45
6883.00,0.45
6882.00,0.45
6881.00,0.45
6880.00,0.45
6879.00,0.45
6878.00,0.45
6877.00,0.45
6876.00,0.45
6875.00,0.45
6874.00,0.45
6873.00,0.45
6872.00,0.45
6871.00,0.45
6870.00,0.45
6869.00,0.45
6868.00,0.45
6867.00,0.45
6866.00,0.45
6865.00,0.44
6864.00,0.44
6863.00,0.44
6862.00,0.44
6861.00,0.44
6860.00,0.44
6859.00,0.44
6858.00,0.44
6857.00,0.44
6856.00,0.44
6855.00,0.44
6854.00,0.44
6853.00,0.44
6852.00,0.44
6851.00,0.44
6850.00,0.44
6849.00,0.44
6848.00,0.44
6847.00,0.44
6846.00,0.45
6845.00,0.45
6844.00,0.45
6843.00,0.45
6842.00,0.45
6841.00,0.45
6840.00,0.45
6839.00,0.45
6838.00,0.45
6837.00,0.45
6836.00,0.45
6835.00,0.45
6834.00,0.45
6833.00,0.45
6832.00,0.46
6831.00,0.46
6830.00,0.46
6829.00,0.46
6828.00,0.46
6827.00,0.46
6826.00,0.46
6825.00,0.46
6824.00,0.46
6823.00,0.46
6822.00,0.46
6821.00,0.46
6820.00,0.46
6819.00,0.46
6818.00,0.46
6817.00,0.46
6816.00,0.46
6815.00,0.46
6814.00,0.46
6813.00,0.46
6812.00,0.46
6811.00,0.46
6810.00,0.46
6809.00,0.46
6808.00,0.46
6807.00,0.46
6806.00,0.46
6805.00,0.45
6804.00,0.45
6803.00,0.45
6802.00,0.45
6801.00,0.45
6800.00,0.45
6799.00,0.45
6798.00,0.45
6797.00,0.46
6796.00,0.46
6795.00,0.46
6794.00,0.46
6793.00,0.46
6792.00,0.46
6791.00,0.46
6790.00,0.46
6789.00,0.46
6788.00,0.46
6787.00,0.46
6786.00,0.46
6785.00,0.46
6784.00,0.46
6783.00,0.46
6782.00,0.46
6781.00,0.46
6780.00,0.46
6779.00,0.46
6778.00,0.46
6777.00,0.46
6776.00,0.46
6775.00,0.46
6774.00,0.46
6773.00,0.46
6772.00,0.46
6771.00,0.46
6770.00,0.46
6769.00,0.46
6768.00,0.46
6767.00,0.46
6766.00,0.46
6765.00,0.46
6764.00,0.46
6763.00,0.46
6762.00,0.46
6761.00,0.46
6760.00,0.46
6759.00,0.46
6758.00,0.46
6757.00,0.46
6756.00,0.46
6755.00,0.46
6754.00,0.46
6753.00,0.46
6752.00,0.46
6751.00,0.46
6750.00,0.47
6749.00,0.47
6748.00,0.47
6747.00,0.47
6746.00,0.47
6745.00,0.47
6744.00,0.47
6743.00,0.47
6742.00,0.47
6741.00,0.47
6740.00,0.47
6739.00,0.47
6738.00,0.48
6737.00,0.48
6736.00,0.48
6735.00,0.48
6734.00,0.48
6733.00,0.48
6732.00,0.48
6731.00,0.48
6730.00,0.48
6729.00,0.48
6728.00,0.48
6727.00,0.48
6726.00,0.48
6725.00,0.48
6724.00,0.48
6723.00,0.48
6722.00,0.48
6721.00,0.48
6720.00,0.48
6719.00,0.48
6718.00,0.48
6717.00,0.48
6716.00,0.48
6715.00,0.48
6714.00,0.48
6713.00,0.48
6712.00,0.48
6711.00,0.48
6710.00,0.48
6709.00,0.48
6708.00,0.48
6707.00,0.49
6706.00,0.49
6705.00,0.49
6704.00,0.49
6703.00,0.49
6702.00,0.49
6701.00,0.49
6700.00,0.49
6699.00,0.49
6698.00,0.49
6697.00,0.50
6696.00,0.50
6695.00,0.50
6694.00,0.50
6693.00,0.50
6692.00,0.50
6691.00,0.50
6690.00,0.50
6689.00,0.50
6688.00,0.51
6687.00,0.51
6686.00,0.51
6685.00,0.51
6684.00,0.51
6683.00,0.51
6682.00,0.51
6681.00,0.51
6680.00,0.51
6679.00,0.51
6678.00,0.51
6677.00,0.51
6676.00,0.51
6675.00,0.51
6674.00,0.51
6673.00,0.51
6672.00,0.51
6671.00,0.51
6670.00,0.51
6669.00,0.51
6668.00,0.51
6667.00,0.51
6666.00,0.51
6665.00,0.51
6664.00,0.51
6663.00,0.51
6662.00,0.51
6661.00,0.51
6660.00,0.51
6659.00,0.51
6658.00,0.51
6657.00,0.51
6656.00,0.51
6655.00,0.51
6654.00,0.51
6653.00,0.51
6652.00,0.51
6651.00,0.51
6650.00,0.51
6649.00,0.51
6648.00,0.51
6647.00,0.51
6646.00,0.51
6645.00,0.51
6644.00,0.51
6643.00,0.51
6642.00,0.52
6641.00,0.52
6640.00,0.52
6639.00,0.52
6638.00,0.52
6637.00,0.52
6636.00,0.52
6635.00,0.52
6634.00,0.52
6633.00,0.52
6632.00,0.52
6631.00,0.52
6630.00,0.52
6629.00,0.52
6628.00,0.53
6627.00,0.53
6626.00,0.53
6625.00,0.53
6624.00,0.53
6623.00,0.53
6622.00,0.53
6621.00,0.53
6620.00,0.53
6619.00,0.53
6618.00,0.53
6617.00,0.53
6616.00,0.53
6615.00,0.53
6614.00,0.54
6613.00,0.54
6612.00,0.54
6611.00,0.54
6610.00,0.54
6609.00,0.54
6608.00,0.54
6607.00,0.54
6606.00,0.54
6605.00,0.54
6604.00,0.54
6603.00,0.55
6602.00,0.55
6601.00,0.55
6600.00,0.55
6599.00,0.55
6598.00,0.55
6597.00,0.55
6596.00,0.55
6595.00,0.55
6594.00,0.56
6593.00,0.56
6592.00,0.56
6591.00,0.56
6590.00,0.56
6589.00,0.56
6588.00,0.56
6587.00,0.56
6586.00,0.56
6585.00,0.56
6584.00,0.56
6583.00,0.56
6582.00,0.56
6581.00,0.56
6580.00,0.56
6579.00,0.56
6578.00,0.56
6577.00,0.56
6576.00,0.56
6575.00,0.56
6574.00,0.56
6573.00,0.56
6572.00,0.56
6571.00,0.56
6570.00,0.56
6569.00,0.56
6568.00,0.56
6567.00,0.56
6566.00,0.56
6565.00,0.56
6564.00,0.56
6563.00,0.56
6562.00,0.56
6561.00,0.56
6560.00,0.56
6559.00,0.57
6558.00,0.57
6557.00,0.57
6556.00,0.57
6555.00,0.57
6554.00,0.57
6553.00,0.57
6552.00,0.57
6551.00,0.57
6550.00,0.57
6549.00,0.57
6548.00,0.58
6547.00,0.58
6546.00,0.58
6545.00,0.58
6544.00,0.58
6543.00,0.58
6542.00,0.58
6541.00,0.58
6540.00,0.58
6539.00,0.58
6538.00,0.58
6537.00,0.58
6536.00,0.58
6535.00,0.59
6534.00,0.59
6533.00,0.59
6532.00,0.59
6531.00,0.59
6530.00,0.59
6529.00,0.59
6528.00,0.59
6527.00,0.59
6526.00,0.59
6525.00,0.59
6524.00,0.59
6523.00,0.59
6522.00,0.59
6521.00,0.59
6520.00,0.59
6519.00,0.59
6518.00,0.59
6517.00,0.59
6516.00,0.59
6515.00,0.59
6514.00,0.59
6513.00,0.59
6512.00,0.59
6511.00,0.59
6510.00,0.59
6509.00,0.59
6508.00,0.60
6507.00,0.60
6506.00,0.60
6505.00,0.60
6504.00,0.60
6503.00,0.60
6502.00,0.60
6501.00,0.60
6500.00,0.60
6499.00,0.60
6498.00,0.60
6497.00,0.60
6496.00,0.60
6495.00,0.60
6494.00,0.60
6493.00,0.60
6492.00,0.60
6491.00,0.60
6490.00,0.60
6489.00,0.60
6488.00,0.60
6487.00,0.60
6486.00,0.60
6485.00,0.60
6484.00,0.61
6483.00,0.61
6482.00,0.61
6481.00,0.61
6480.00,0.61
6479.00,0.61
6478.00,0.61
6477.00,0.61
6476.00,0.61
6475.00,0.61
6474.00,0.61
6473.00,0.61
6472.00,0.61
6471.00,0.61
6470.00,0.61
6469.00,0.61
6468.00,0.61
6467.00,0.61
6466.00,0.61
6465.00,0.61
6464.00,0.61
6463.00,0.61
6462.00,0.61
6461.00,0.61
6460.00,0.62
6459.00,0.62
6458.00,0.62
6457.00,0.62
6456.00,0.62
6455.00,0.62
6454.00,0.62
6453.00,0.62
6452.00,0.62
6451.00,0.62
6450.00,0.62
6449.00,0.62
6448.00,0.62
6447.00,0.62
6446.00,0.62
6445.00,0.62
6444.00,0.62
6443.00,0.62
6442.00,0.62
6441.00,0.62
6440.00,0.62
6439.00,0.62
6438.00,0.62
6437.00,0.62
6436.00,0.62
6435.00,0.62
6434.00,0.62
6433.00,0.62
6432.00,0.62
6431.00,0.62
6430.00,0.62
6429.00,0.62
6428.00,0.62
6427.00,0.62
6426.00,0.62
6425.00,0.62
6424.00,0.62
6423.00,0.62
6422.00,0.62
6421.00,0.62
6420.00,0.62
6419.00,0.62
6418.00,0.62
6417.00,0.62
6416.00,0.62
6415.00,0.62
6414.00,0.62
6413.00,0.63
6412.00,0.63
6411.00,0.63
6410.00,0.63
6409.00,0.63
6408.00,0.63
6407.00,0.63
6406.00,0.63
6405.00,0.63
6404.00,0.64
6403.00,0.64
6402.00,0.64
6401.00,0.64
6400.00,0.64
6399.00,0.64
6398.00,0.64
6397.00,0.64
6396.00,0.64
6395.00,0.64
6394.00,0.64
6393.00,0.64
6392.00,0.64
6391.00,0.64
6390.00,0.64
6389.00,0.64
6388.00,0.64
6387.00,0.64
6386.00,0.64
6385.00,0.64
6384.00,0.64
6383.00,0.64
6382.00,0.64
6381.00,0.64
6380.00,0.64
6379.00,0.64
6378.00,0.64
6377.00,0.64
6376.00,0.64
6375.00,0.64
6374.00,0.65
6373.00,0.65
6372.00,0.65
6371.00,0.65
6370.00,0.65
6369.00,0.65
6368.00,0.65
6367.00,0.65
6366.00,0.65
6365.00,0.65
6364.00,0.65
6363.00,0.65
6362.00,0.65
6361.00,0.65
6360.00,0.65
6359.00,0.65
6358.00,0.66
6357.00,0.66
6356.00,0.66
6355.00,0.66
6354.00,0.66
6353.00,0.66
6352.00,0.66
6351.00,0.66
6350.00,0.66
6349.00,0.66
6348.00,0.66
6347.00,0.66
6346.00,0.67
6345.00,0.67
6344.00,0.67
6343.00,0.67
6342.00,0.67
6341.00,0.67
6340.00,0.67
6339.00,0.67
6338.00,0.67
6337.00,0.67
6336.00,0.67
6335.00,0.67
6334.00,0.67
6333.00,0.67
6332.00,0.67
6331.00,0.67
6330.00,0.67
6329.00,0.67
6328.00,0.67
6327.00,0.67
6326.00,0.67
6325.00,0.67
6324.00,0.67
6323.00,0.67
6322.00,0.67
6321.00,0.67
6320.00,0.67
6319.00,0.68
6318.00,0.68
6317.00,0.68
6316.00,0.68
6315.00,0.68
6314.00,0.68
6313.00,0.68
6312.00,0.68
6311.00,0.68
6310.00,0.68
6309.00,0.68
6308.00,0.68
6307.00,0.69
6306.00,0.69
6305.00,0.69
6304.00,0.69
6303.00,0.69
6302.00,0.69
6301.00,0.69
6300.00,0.69
6299.00,0.69
6298.00,0.69
6297.00,0.69
6296.00,0.69
6295.00,0.69
6294.00,0.69
6293.00,0.69
6292.00,0.69
6291.00,0.69
6290.00,0.69
6289.00,0.69
6288.00,0.69
6287.00,0.70
6286.00,0.70
6285.00,0.70
6284.00,0.70
6283.00,0.70
6282.00,0.70
6281.00,0.70
6280.00,0.70
6279.00,0.70
6278.00,0.70
6277.00,0.70
6276.00,0.70
6275.00,0.70
6274.00,0.71
6273.00,0.71
6272.00,0.71
6271.00,0.71
6270.00,0.71
6269.00,0.71
6268.00,0.71
6267.00,0.71
6266.00,0.72
6265.00,0.72
6264.00,0.72
6263.00,0.72
6262.00,0.72
6261.00,0.72
6260.00,0.72
6259.00,0.72
6258.00,0.73
6257.00,0.73
6256.00,0.73
6255.00,0.73
6254.00,0.73
6253.00,0.73
6252.00,0.73
6251.00,0.73
6250.00,0.73
6249.00,0.73
6248.00,0.73
6247.00,0.73
6246.00,0.73
6245.00,0.73
6244.00,0.73
6243.00,0.73
6242.00,0.73
6241.00,0.73
6240.00,0.73
6239.00,0.73
6238.00,0.74
6237.00,0.74
6236.00,0.74
6235.00,0.74
6234.00,0.74
6233.00,0.74
6232.00,0.74
6231.00,0.74
6230.00,0.74
6229.00,0.74
6228.00,0.74
6227.00,0.75
6226.00,0.75
6225.00,0.75
6224.00,0.75
6223.00,0.75
6222.00,0.75
6221.00,0.75
6220.00,0.75
6219.00,0.75
6218.00,0.75
6217.00,0.75
6216.00,0.76
6215.00,0.76
6214.00,0.76
6213.00,0.76
6212.00,0.76
6211.00,0.76
6210.00,0.76
6209.00,0.76
6208.00,0.76
6207.00,0.76
6206.00,0.76
6205.00,0.76
6204.00,0.76
6203.00,0.76
6202.00,0.76
6201.00,0.76
6200.00,0.76
6199.00,0.76
6198.00,0.76
6197.00,0.76
6196.00,0.76
6195.00,0.76
6194.00,0.76
6193.00,0.76
6192.00,0.76
6191.00,0.77
6190.00,0.77
6189.00,0.77
6188.00,0.77
6187.00,0.77
6186.00,0.77
6185.00,0.77
6184.00,0.78
6183.00,0.78
6182.00,0.78
6181.00,0.78
6180.00,0.78
6179.00,0.78
6178.00,0.78
6177.00,0.79
6176.00,0.79
6175.00,0.79
6174.00,0.79
6173.00,0.79
6172.00,0.79
6171.00,0.79
6170.00,0.79
6169.00,0.79
6168.00,0.79
6167.00,0.80
6166.00,0.80
6165.00,0.80
6164.00,0.80
6163.00,0.80
6162.00,0.80
6161.00,0.80
6160.00,0.80
6159.00,0.80
6158.00,0.80
6157.00,0.80
6156.00,0.81
6155.00,0.81
6154.00,0.81
6153.00,0.81
6152.00,0.81
6151.00,0.81
6150.00,0.81
6149.00,0.81
6148.00,0.82
6147.00,0.82
6146.00,0.82
6145.00,0.82
6144.00,0.82
6143.00,0.82
6142.00,0.82
6141.00,0.82
6140.00,0.82
6139.00,0.82
6138.00,0.83
6137.00,0.83
6136.00,0.83
6135.00,0.83
6134.00,0.83
6133.00,0.83
6132.00,0.83
6131.00,0.83
6130.00,0.83
6129.00,0.83
6128.00,0.83
6127.00,0.84
6126.00,0.84
6125.00,0.84
6124.00,0.84
6123.00,0.84
6122.00,0.84
6121.00,0.84
6120.00,0.84
6119.00,0.84
6118.00,0.84
6117.00,0.84
6116.00,0.84
6115.00,0.85
6114.00,0.85
6113.00,0.85
6112.00,0.85
6111.00,0.85
6110.00,0.85
6109.00,0.85
6108.00,0.85
6107.00,0.85
6106.00,0.85
6105.00,0.85
6104.00,0.85
6103.00,0.85
6102.00,0.86
6101.00,0.86
6100.00,0.86
6099.00,0.86
6098.00,0.86
6097.00,0.86
6096.00,0.86
6095.00,0.86
6094.00,0.86
6093.00,0.87
6092.00,0.87
6091.00,0.87
6090.00,0.87
6089.00,0.87
6088.00,0.87
6087.00,0.87
6086.00,0.87
6085.00,0.87
6084.00,0.87
6083.00,0.87
6082.00,0.88
6081.00,0.88
6080.00,0.88
6079.00,0.88
6078.00,0.88
6077.00,0.88
6076.00,0.88
6075.00,0.88
6074.00,0.88
6073.00,0.89
6072.00,0.89
6071.00,0.89
6070.00,0.89
6069.00,0.89
6068.00,0.89
6067.00,0.89
6066.00,0.89
6065.00,0.89
6064.00,0.89
6063.00,0.89
6062.00,0.89
6061.00,0.89
6060.00,0.89
6059.00,0.89
6058.00,0.89
6057.00,0.89
6056.00,0.89
6055.00,0.89
6054.00,0.89
6053.00,0.89
6052.00,0.89
6051.00,0.90
6050.00,0.90
6049.00,0.90
6048.00,0.90
6047.00,0.90
6046.00,0.90
6045.00,0.90
6044.00,0.90
6043.00,0.90
6042.00,0.90
6041.00,0.90
6040.00,0.90
6039.00,0.90
6038.00,0.91
6037.00,0.91
6036.00,0.91
6035.00,0.91
6034.00,0.91
6033.00,0.91
6032.00,0.91
6031.00,0.91
6030.00,0.91
6029.00,0.91
6028.00,0.91
6027.00,0.91
6026.00,0.91
6025.00,0.91
6024.00,0.91
6023.00,0.91
6022.00,0.91
6021.00,0.91
6020.00,0.91
6019.00,0.91
6018.00,0.91
6017.00,0.91
6016.00,0.91
6015.00,0.91
6014.00,0.91
6013.00,0.91
6012.00,0.91
6011.00,0.91
6010.00,0.91
6009.00,0.91
6008.00,0.91
6007.00,0.91
6006.00,0.91
6005.00,0.91
6004.00,0.91
6003.00,0.91
6002.00,0.91
6001.00,0.91
6000.00,0.91
5999.00,0.90
5998.00,0.90
5997.00,0.90
5996.00,0.90
5995.00,0.90
5994.00,0.90
5993.00,0.90
5992.00,0.89
5991.00,0.89
5990.00,0.89
5989.00,0.89
5988.00,0.89
5987.00,0.89
5986.00,0.89
5985.00,0.89
5984.00,0.88
5983.00,0.88
5982.00,0.88
5981.00,0.88
5980.00,0.88
5979.00,0.88
5978.00,0.87
5977.00,0.87
5976.00,0.87
5975.00,0.87
5974.00,0.86
5973.00,0.86
5972.00,0.86
5971.00,0.85
5970.00,0.85
5969.00,0.85
5968.00,0.84
5967.00,0.84
5966.00,0.84
5965.00,0.83
5964.00,0.83
5963.00,0.82
5962.00,0.82
5961.00,0.82
5960.00,0.81
5959.00,0.81
5958.00,0.80
5957.00,0.80
5956.00,0.79
5955.00,0.79
5954.00,0.78
5953.00,0.78
5952.00,0.78
5951.00,0.77
5950.00,0.77
5949.00,0.77
5948.00,0.76
5947.00,0.76
5946.00,0.76
5945.00,0.76
5944.00,0.75
5943.00,0.75
5942.00,0.75
5941.00,0.75
5940.00,0.75
5939.00,0.75
5938.00,0.75
5937.00,0.75
5936.00,0.74
5935.00,0.74
5934.00,0.74
5933.00,0.74
5932.00,0.74
5931.00,0.74
5930.00,0.74
5929.00,0.74
5928.00,0.74
5927.00,0.74
5926.00,0.74
5925.00,0.74
5924.00,0.74
5923.00,0.74
5922.00,0.74
5921.00,0.73
5920.00,0.73
5919.00,0.73
5918.00,0.73
5917.00,0.73
5916.00,0.73
5915.00,0.73
5914.00,0.73
5913.00,0.73
5912.00,0.72
5911.00,0.72
5910.00,0.72
5909.00,0.72
5908.00,0.72
5907.00,0.72
5906.00,0.72
5905.00,0.72
5904.00,0.72
5903.00,0.72
5902.00,0.72
5901.00,0.72
5900.00,0.72
5899.00,0.72
5898.00,0.72
5897.00,0.72
5896.00,0.72
5895.00,0.72
5894.00,0.72
5893.00,0.72
5892.00,0.72
5891.00,0.72
5890.00,0.72
5889.00,0.72
5888.00,0.73
5887.00,0.73
5886.00,0.73
5885.00,0.73
5884.00,0.73
5883.00,0.74
5882.00,0.74
5881.00,0.74
5880.00,0.74
5879.00,0.74
5878.00,0.75
5877.00,0.75
5876.00,0.75
5875.00,0.75
5874.00,0.75
5873.00,0.76
5872.00,0.76
5871.00,0.76
5870.00,0.76
5869.00,0.76
5868.00,0.76
5867.00,0.77
5866.00,0.77
5865.00,0.77
5864.00,0.77
5863.00,0.77
5862.00,0.77
5861.00,0.77
5860.00,0.77
5859.00,0.77
5858.00,0.77
5857.00,0.77
5856.00,0.78
5855.00,0.78
5854.00,0.78
5853.00,0.78
5852.00,0.78
5851.00,0.78
5850.00,0.78
5849.00,0.78
5848.00,0.78
5847.00,0.78
5846.00,0.78
5845.00,0.78
5844.00,0.78
5843.00,0.78
5842.00,0.78
5841.00,0.78
5840.00,0.78
5839.00,0.78
5838.00,0.78
5837.00,0.78
5836.00,0.78
5835.00,0.78
5834.00,0.78
5833.00,0.78
5832.00,0.78
5831.00,0.78
5830.00,0.78
5829.00,0.78
5828.00,0.78
5827.00,0.78
5826.00,0.78
5825.00,0.78
5824.00,0.78
5823.00,0.78
5822.00,0.78
5821.00,0.78
5820.00,0.78
5819.00,0.78
5818.00,0.78
5817.00,0.78
5816.00,0.78
5815.00,0.78
5814.00,0.78
5813.00,0.78
5812.00,0.78
5811.00,0.78
5810.00,0.78
5809.00,0.78
5808.00,0.78
5807.00,0.78
5806.00,0.78
5805.00,0.78
5804.00,0.78
5803.00,0.78
5802.00,0.78
5801.00,0.77
5800.00,0.77
5799.00,0.77
5798.00,0.77
5797.00,0.77
5796.00,0.77
5795.00,0.77
5794.00,0.77
5793.00,0.77
5792.00,0.77
5791.00,0.77
5790.00,0.77
5789.00,0.76
5788.00,0.76
5787.00,0.76
5786.00,0.76
5785.00,0.76
5784.00,0.76
5783.00,0.76
5782.00,0.75
5781.00,0.75
5780.00,0.75
5779.00,0.75
5778.00,0.75
5777.00,0.75
5776.00,0.75
5775.00,0.75
5774.00,0.75
5773.00,0.75
5772.00,0.75
5771.00,0.75
5770.00,0.75
5769.00,0.75
5768.00,0.75
5767.00,0.75
5766.00,0.75
5765.00,0.75
5764.00,0.76
5763.00,0.76
5762.00,0.76
5761.00,0.76
5760.00,0.76
5759.00,0.76
5758.00,0.77
5757.00,0.77
5756.00,0.77
5755.00,0.77
5754.00,0.77
5753.00,0.78
5752.00,0.78
5751.00,0.78
5750.00,0.78
5749.00,0.78
5748.00,0.78
5747.00,0.79
5746.00,0.79
5745.00,0.79
5744.00,0.79
5743.00,0.79
5742.00,0.79
5741.00,0.80
5740.00,0.80
5739.00,0.80
5738.00,0.80
5737.00,0.80
5736.00,0.80
5735.00,0.81
5734.00,0.81
5733.00,0.81
5732.00,0.81
5731.00,0.81
5730.00,0.81
5729.00,0.82
5728.00,0.82
5727.00,0.82
5726.00,0.82
5725.00,0.82
5724.00,0.82
5723.00,0.82
5722.00,0.82
5721.00,0.83
5720.00,0.83
5719.00,0.83
5718.00,0.83
5717.00,0.83
5716.00,0.83
5715.00,0.83
5714.00,0.83
5713.00,0.83
5712.00,0.83
5711.00,0.83
5710.00,0.83
5709.00,0.83
5708.00,0.83
5707.00,0.83
5706.00,0.83
5705.00,0.82
5704.00,0.82
5703.00,0.82
5702.00,0.82
5701.00,0.82
5700.00,0.82
5699.00,0.82
5698.00,0.82
5697.00,0.82
5696.00,0.81
5695.00,0.81
5694.00,0.81
5693.00,0.81
5692.00,0.81
5691.00,0.81
5690.00,0.81
5689.00,0.81
5688.00,0.80
5687.00,0.80
5686.00,0.80
5685.00,0.80
5684.00,0.80
5683.00,0.80
5682.00,0.80
5681.00,0.80
5680.00,0.80
5679.00,0.80
5678.00,0.80
5677.00,0.80
5676.00,0.80
5675.00,0.80
5674.00,0.80
5673.00,0.80
5672.00,0.80
5671.00,0.80
5670.00,0.80
5669.00,0.80
5668.00,0.80
5667.00,0.80
5666.00,0.81
5665.00,0.81
5664.00,0.81
5663.00,0.81
5662.00,0.81
5661.00,0.81
5660.00,0.81
5659.00,0.81
5658.00,0.81
5657.00,0.81
5656.00,0.81
5655.00,0.81
5654.00,0.82
5653.00,0.82
5652.00,0.82
5651.00,0.82
5650.00,0.82
5649.00,0.82
5648.00,0.82
5647.00,0.82
5646.00,0.82
5645.00,0.83
5644.00,0.83
5643.00,0.83
5642.00,0.83
5641.00,0.83
5640.00,0.83
5639.00,0.83
5638.00,0.84
5637.00,0.84
5636.00,0.84
5635.00,0.84
5634.00,0.84
5633.00,0.84
5632.00,0.84
5631.00,0.85
5630.00,0.85
5629.00,0.85
5628.00,0.85
5627.00,0.85
5626.00,0.85
5625.00,0.85
5624.00,0.85
5623.00,0.85
5622.00,0.86
5621.00,0.86
5620.00,0.86
5619.00,0.86
5618.00,0.86
5617.00,0.86
5616.00,0.86
5615.00,0.86
5614.00,0.86
5613.00,0.87
5612.00,0.87
5611.00,0.87
5610.00,0.87
5609.00,0.87
5608.00,0.87
5607.00,0.87
5606.00,0.87
5605.00,0.87
5604.00,0.88
5603.00,0.88
5602.00,0.88
5601.00,0.88
5600.00,0.88
5599.00,0.88
5598.00,0.88
5597.00,0.88
5596.00,0.88
5595.00,0.88
5594.00,0.89
5593.00,0.89
5592.00,0.89
5591.00,0.89
5590.00,0.89
5589.00,0.89
5588.00,0.89
5587.00,0.89
5586.00,0.89
5585.00,0.89
5584.00,0.90
5583.00,0.90
5582.00,0.90
5581.00,0.90
5580.00,0.90
5579.00,0.90
5578.00,0.90
5577.00,0.90
5576.00,0.90
5575.00,0.90
5574.00,0.90
5573.00,0.90
5572.00,0.91
5571.00,0.91
5570.00,0.91
5569.00,0.91
5568.00,0.91
5567.00,0.91
5566.00,0.91
5565.00,0.91
5564.00,0.91
5563.00,0.91
5562.00,0.92
5561.00,0.92
5560.00,0.92
5559.00,0.92
5558.00,0.92
5557.00,0.92
5556.00,0.92
5555.00,0.92
5554.00,0.92
5553.00,0.92
5552.00,0.92
5551.00,0.92
5550.00,0.93
5549.00,0.93
5548.00,0.93
5547.00,0.93
5546.00,0.93
5545.00,0.93
5544.00,0.93
5543.00,0.93
5542.00,0.93
5541.00,0.93
5540.00,0.93
5539.00,0.93
5538.00,0.93
5537.00,0.94
5536.00,0.94
5535.00,0.94
5534.00,0.94
5533.00,0.94
5532.00,0.94
5531.00,0.94
5530.00,0.94
5529.00,0.94
5528.00,0.94
5527.00,0.94
5526.00,0.94
5525.00,0.94
5524.00,0.94
5523.00,0.94
5522.00,0.94
5521.00,0.95
5520.00,0.95
5519.00,0.95
5518.00,0.95
5517.00,0.95
5516.00,0.95
5515.00,0.95
5514.00,0.95
5513.00,0.95
5512.00,0.95
5511.00,0.95
5510.00,0.95
5509.00,0.95
5508.00,0.95
5507.00,0.95
5506.00,0.95
5505.00,0.95
5504.00,0.95
5503.00,0.95
5502.00,0.95
5501.00,0.95
5500.00,0.95
5499.00,0.95
5498.00,0.95
5497.00,0.95
5496.00,0.95
5495.00,0.95
5494.00,0.96
5493.00,0.96
5492.00,0.96
5491.00,0.96
5490.00,0.96
5489.00,0.96
5488.00,0.96
5487.00,0.96
5486.00,0.96
5485.00,0.96
5484.00,0.97
5483.00,0.97
5482.00,0.97
5481.00,0.97
5480.00,0.97
5479.00,0.97
5478.00,0.97
5477.00,0.97
5476.00,0.98
5475.00,0.98
5474.00,0.98
5473.00,0.98
5472.00,0.98
5471.00,0.98
5470.00,0.98
5469.00,0.98
5468.00,0.98
5467.00,0.98
5466.00,0.98
5465.00,0.98
5464.00,0.98
5463.00,0.98
5462.00,0.99
5461.00,0.99
5460.00,0.99
5459.00,0.99
5458.00,0.99
5457.00,0.99
5456.00,0.99
5455.00,0.99
5454.00,0.99
5453.00,0.99
5452.00,0.99
5451.00,0.99
5450.00,0.99
5449.00,0.99
5448.00,0.99
5447.00,0.99
5446.00,0.99
5445.00,0.99
5444.00,0.99
5443.00,0.99
5442.00,0.99
5441.00,0.99
5440.00,0.99
5439.00,0.99
5438.00,0.99
5437.00,0.99
5436.00,0.99
5435.00,0.99
5434.00,0.99
5433.00,0.99
5432.00,0.99
5431.00,0.99
5430.00,1.00
5429.00,1.00
5428.00,1.00
5427.00,1.00
5426.00,1.00
5425.00,1.00
5424.00,1.00
5423.00,1.00
5422.00,1.00
5421.00,1.00
5420.00,1.00
5419.00,1.00
5418.00,1.00
5417.00,1.00
5416.00,1.00
5415.00,1.00
5414.00,1.00
5413.00,1.00
5412.00,1.00
5411.00,1.00
5410.00,1.00
5409.00,1.00
5408.00,1.00
5407.00,1.00
5406.00,1.00
5405.00,1.00
5404.00,1.00
5403.00,1.00
5402.00,1.00
5401.00,1.00
5400.00,1.00
5399.00,1.00
5398.00,1.00
5397.00,1.00
5396.00,1.00
5395.00,1.00
5394.00,0.99
5393.00,0.99
5392.00,0.99
5391.00,0.99
5390.00,0.99
5389.00,0.99
5388.00,0.99
5387.00,0.98
5386.00,0.98
5385.00,0.98
5384.00,0.98
5383.00,0.98
5382.00,0.98
5381.00,0.97
5380.00,0.97
5379.00,0.97
5378.00,0.97
5377.00,0.97
5376.00,0.96
5375.00,0.96
5374.00,0.96
5373.00,0.96
5372.00,0.96
5371.00,0.95
5370.00,0.95
5369.00,0.95
5368.00,0.95
5367.00,0.94
5366.00,0.94
5365.00,0.94
5364.00,0.93
5363.00,0.93
5362.00,0.92
5361.00,0.92
5360.00,0.91
5359.00,0.91
5358.00,0.90
5357.00,0.90
5356.00,0.89
5355.00,0.89
5354.00,0.88
5353.00,0.88
5352.00,0.87
5351.00,0.87
5350.00,0.86
5349.00,0.85
5348.00,0.85
5347.00,0.84
5346.00,0.84
5345.00,0.83
5344.00,0.82
5343.00,0.82
5342.00,0.81
5341.00,0.81
5340.00,0.80
5339.00,0.79
5338.00,0.79
5337.00,0.78
5336.00,0.78
5335.00,0.77
5334.00,0.76
5333.00,0.76
5332.00,0.75
5331.00,0.75
5330.00,0.74
5329.00,0.74
5328.00,0.73
5327.00,0.72
5326.00,0.72
5325.00,0.71
5324.00,0.71
5323.00,0.70
5322.00,0.70
5321.00,0.69
5320.00,0.69
5319.00,0.68
5318.00,0.68
5317.00,0.67
5316.00,0.67
5315.00,0.66
5314.00,0.66
5313.00,0.65
5312.00,0.65
5311.00,0.64
5310.00,0.64
5309.00,0.63
5308.00,0.63
5307.00,0.62
5306.00,0.62
5305.00,0.62
5304.00,0.61
5303.00,0.61
5302.00,0.61
5301.00,0.60
5300.00,0.60
5299.00,0.60
5298.00,0.59
5297.00,0.59
5296.00,0.59
5295.00,0.59
5294.00,0.58
5293.00,0.58
5292.00,0.58
5291.00,0.58
5290.00,0.58
5289.00,0.58
5288.00,0.58
5287.00,0.57
5286.00,0.57
5285.00,0.57
5284.00,0.57
5283.00,0.57
5282.00,0.57
5281.00,0.57
5280.00,0.57
5279.00,0.57
5278.00,0.57
5277.00,0.57
5276.00,0.57
5275.00,0.57
5274.00,0.57
5273.00,0.57
5272.00,0.57
5271.00,0.57
5270.00,0.57
5269.00,0.57
5268.00,0.57
5267.00,0.57
5266.00,0.57
5265.00,0.56
5264.00,0.56
5263.00,0.56
5262.00,0.56
5261.00,0.56
5260.00,0.56
5259.00,0.56
5258.00,0.56
5257.00,0.56
5256.00,0.56
5255.00,0.56
5254.00,0.56
5253.00,0.56
5252.00,0.56
5251.00,0.56
5250.00,0.56
5249.00,0.56
5248.00,0.56
5247.00,0.56
5246.00,0.57
5245.00,0.57
5244.00,0.57
5243.00,0.57
5242.00,0.57
5241.00,0.57
5240.00,0.57
5239.00,0.57
5238.00,0.56
5237.00,0.56
5236.00,0.56
5235.00,0.56
5234.00,0.56
5233.00,0.56
5232.00,0.56
5231.00,0.56
5230.00,0.56
5229.00,0.56
5228.00,0.56
5227.00,0.56
5226.00,0.56
5225.00,0.56
5224.00,0.56
5223.00,0.56
5222.00,0.57
5221.00,0.57
5220.00,0.57
5219.00,0.57
5218.00,0.57
5217.00,0.57
5216.00,0.57
5215.00,0.57
5214.00,0.57
5213.00,0.57
5212.00,0.57
5211.00,0.57
5210.00,0.57
5209.00,0.57
5208.00,0.57
5207.00,0.57
5206.00,0.57
5205.00,0.57
5204.00,0.57
5203.00,0.57
5202.00,0.57
5201.00,0.57
5200.00,0.57
5199.00,0.57
5198.00,0.57
5197.00,0.57
5196.00,0.57
5195.00,0.57
5194.00,0.57
5193.00,0.57
5192.00,0.57
5191.00,0.57
5190.00,0.57
5189.00,0.57
5188.00,0.57
5187.00,0.57
5186.00,0.57
5185.00,0.58
5184.00,0.58
5183.00,0.58
5182.00,0.58
5181.00,0.58
5180.00,0.58
5179.00,0.58
5178.00,0.58
5177.00,0.58
5176.00,0.58
5175.00,0.58
5174.00,0.58
5173.00,0.58
5172.00,0.58
5171.00,0.58
5170.00,0.58
5169.00,0.58
5168.00,0.58
5167.00,0.58
5166.00,0.58
5165.00,0.58
5164.00,0.58
5163.00,0.58
5162.00,0.58
5161.00,0.58
5160.00,0.58
5159.00,0.58
5158.00,0.58
5157.00,0.58
5156.00,0.58
5155.00,0.58
5154.00,0.59
5153.00,0.59
5152.00,0.59
5151.00,0.59
5150.00,0.59
5149.00,0.59
5148.00,0.59
5147.00,0.59
5146.00,0.59
5145.00,0.59
5144.00,0.60
5143.00,0.60
5142.00,0.60
5141.00,0.60
5140.00,0.60
5139.00,0.60
5138.00,0.60
5137.00,0.60
5136.00,0.60
5135.00,0.60
5134.00,0.60
5133.00,0.60
5132.00,0.60
5131.00,0.60
5130.00,0.60
5129.00,0.60
5128.00,0.60
5127.00,0.60
5126.00,0.60
5125.00,0.60
5124.00,0.60
5123.00,0.60
5122.00,0.60
5121.00,0.60
5120.00,0.60
5119.00,0.60
5118.00,0.60
5117.00,0.60
5116.00,0.60
5115.00,0.60
5114.00,0.60
5113.00,0.60
5112.00,0.60
5111.00,0.60
5110.00,0.60
5109.00,0.60
5108.00,0.60
5107.00,0.60
5106.00,0.60
5105.00,0.60
5104.00,0.60
5103.00,0.60
5102.00,0.60
5101.00,0.60
5100.00,0.60
5099.00,0.60
5098.00,0.60
5097.00,0.60
5096.00,0.60
5095.00,0.60
5094.00,0.60
5093.00,0.60
5092.00,0.60
5091.00,0.61
5090.00,0.61
5089.00,0.61
5088.00,0.61
5087.00,0.61
5086.00,0.61
5085.00,0.61
5084.00,0.61
5083.00,0.61
5082.00,0.61
5081.00,0.61
5080.00,0.61
5079.00,0.61
5078.00,0.61
5077.00,0.61
5076.00,0.61
5075.00,0.61
5074.00,0.61
5073.00,0.61
5072.00,0.61
5071.00,0.61
5070.00,0.61
5069.00,0.61
5068.00,0.61
5067.00,0.61
5066.00,0.61
5065.00,0.61
5064.00,0.61
5063.00,0.61
5062.00,0.61
5061.00,0.61
5060.00,0.61
5059.00,0.61
5058.00,0.61
5057.00,0.61
5056.00,0.61
5055.00,0.61
5054.00,0.61
5053.00,0.61
5052.00,0.61
5051.00,0.61
5050.00,0.62
5049.00,0.62
5048.00,0.62
5047.00,0.62
5046.00,0.62
5045.00,0.62
5044.00,0.62
5043.00,0.62
5042.00,0.62
5041.00,0.62
5040.00,0.62
5039.00,0.62
5038.00,0.63
5037.00,0.63
5036.00,0.63
5035.00,0.63
5034.00,0.63
5033.00,0.63
5032.00,0.63
5031.00,0.63
5030.00,0.63
5029.00,0.63
5028.00,0.63
5027.00,0.63
5026.00,0.63
5025.00,0.63
5024.00,0.63
5023.00,0.63
5022.00,0.63
5021.00,0.63
5020.00,0.64
5019.00,0.64
5018.00,0.64
5017.00,0.64
5016.00,0.64
5015.00,0.64
5014.00,0.64
5013.00,0.64
5012.00,0.64
5011.00,0.64
5010.00,0.64
5009.00,0.64
5008.00,0.64
5007.00,0.65
5006.00,0.65
5005.00,0.65
5004.00,0.65
5003.00,0.65
5002.00,0.65
5001.00,0.65
5000.00,0.65
4999.00,0.65
4998.00,0.65
4997.00,0.65
4996.00,0.65
4995.00,0.65
4994.00,0.65
4993.00,0.65
4992.00,0.65
4991.00,0.65
4990.00,0.65
4989.00,0.65
4988.00,0.65
4987.00,0.65
4986.00,0.65
4985.00,0.65
4984.00,0.65
4983.00,0.65
4982.00,0.65
4981.00,0.65
4980.00,0.65
4979.00,0.65
4978.00,0.65
4977.00,0.65
4976.00,0.65
4975.00,0.65
4974.00,0.65
4973.00,0.65
4972.00,0.65
4971.00,0.65
4970.00,0.65
4969.00,0.65
4968.00,0.66
4967.00,0.66
4966.00,0.66
4965.00,0.66
4964.00,0.66
4963.00,0.66
4962.00,0.66
4961.00,0.66
4960.00,0.66
4959.00,0.66
4958.00,0.66
4957.00,0.66
4956.00,0.66
4955.00,0.66
4954.00,0.66
4953.00,0.66
4952.00,0.66
4951.00,0.66
4950.00,0.66
4949.00,0.66
4948.00,0.66
4947.00,0.66
4946.00,0.67
4945.00,0.67
4944.00,0.67
4943.00,0.67
4942.00,0.67
4941.00,0.67
4940.00,0.67
4939.00,0.67
4938.00,0.67
4937.00,0.67
4936.00,0.67
4935.00,0.67
4934.00,0.67
4933.00,0.67
4932.00,0.67
4931.00,0.67
4930.00,0.67
4929.00,0.67
4928.00,0.67
4927.00,0.67
4926.00,0.67
4925.00,0.67
4924.00,0.67
4923.00,0.67
4922.00,0.67
4921.00,0.67
4920.00,0.67
4919.00,0.67
4918.00,0.67
4917.00,0.67
4916.00,0.67
4915.00,0.67
4914.00,0.67
4913.00,0.68
4912.00,0.68
4911.00,0.68
4910.00,0.68
4909.00,0.68
4908.00,0.68
4907.00,0.68
4906.00,0.68
4905.00,0.68
4904.00,0.68
4903.00,0.68
4902.00,0.68
4901.00,0.68
4900.00,0.68
4899.00,0.68
4898.00,0.68
4897.00,0.68
4896.00,0.68
4895.00,0.68
4894.00,0.68
4893.00,0.68
4892.00,0.68
4891.00,0.68
4890.00,0.69
4889.00,0.69
4888.00,0.69
4887.00,0.69
4886.00,0.69
4885.00,0.69
4884.00,0.69
4883.00,0.69
4882.00,0.69
4881.00,0.69
4880.00,0.69
4879.00,0.69
4878.00,0.69
4877.00,0.69
4876.00,0.69
4875.00,0.69
4874.00,0.69
4873.00,0.69
4872.00,0.69
4871.00,0.69
4870.00,0.69
4869.00,0.69
4868.00,0.69
4867.00,0.69
4866.00,0.69
4865.00,0.69
4864.00,0.69
4863.00,0.69
4862.00,0.69
4861.00,0.69
4860.00,0.69
4859.00,0.69
4858.00,0.69
4857.00,0.69
4856.00,0.69
4855.00,0.70
4854.00,0.70
4853.00,0.70
4852.00,0.70
4851.00,0.70
4850.00,0.70
4849.00,0.70
4848.00,0.70
4847.00,0.70
4846.00,0.70
4845.00,0.70
4844.00,0.70
4843.00,0.70
4842.00,0.71
4841.00,0.71
4840.00,0.71
4839.00,0.71
4838.00,0.71
4837.00,0.71
4836.00,0.71
4835.00,0.71
4834.00,0.71
4833.00,0.71
4832.00,0.71
4831.00,0.71
4830.00,0.71
4829.00,0.71
4828.00,0.71
4827.00,0.72
4826.00,0.72
4825.00,0.72
4824.00,0.72
4823.00,0.72
4822.00,0.72
4821.00,0.72
4820.00,0.72
4819.00,0.72
4818.00,0.72
4817.00,0.72
4816.00,0.72
4815.00,0.72
4814.00,0.72
4813.00,0.72
4812.00,0.72
4811.00,0.72
4810.00,0.72
4809.00,0.73
4808.00,0.73
4807.00,0.73
4806.00,0.73
4805.00,0.73
4804.00,0.73
4803.00,0.73
4802.00,0.73
4801.00,0.73
4800.00,0.73
4799.00,0.73
4798.00,0.73
4797.00,0.73
4796.00,0.73
4795.00,0.73
4794.00,0.73
4793.00,0.73
4792.00,0.73
4791.00,0.73
4790.00,0.73
4789.00,0.73
4788.00,0.73
4787.00,0.73
4786.00,0.73
4785.00,0.73
4784.00,0.73
4783.00,0.73
4782.00,0.74
4781.00,0.74
4780.00,0.74
4779.00,0.74
4778.00,0.74
4777.00,0.74
4776.00,0.74
4775.00,0.74
4774.00,0.74
4773.00,0.74
4772.00,0.74
4771.00,0.74
4770.00,0.74
4769.00,0.75
4768.00,0.75
4767.00,0.75
4766.00,0.75
4765.00,0.75
4764.00,0.75
4763.00,0.75
4762.00,0.75
4761.00,0.75
4760.00,0.75
4759.00,0.75
4758.00,0.75
4757.00,0.75
4756.00,0.75
4755.00,0.75
4754.00,0.75
4753.00,0.76
4752.00,0.76
4751.00,0.76
4750.00,0.76
4749.00,0.76
4748.00,0.76
4747.00,0.76
4746.00,0.76
4745.00,0.76
4744.00,0.76
4743.00,0.76
4742.00,0.77
4741.00,0.77
4740.00,0.77
4739.00,0.77
4738.00,0.77
4737.00,0.77
4736.00,0.77
4735.00,0.77
4734.00,0.77
4733.00,0.77
4732.00,0.77
4731.00,0.78
4730.00,0.78
4729.00,0.78
4728.00,0.78
4727.00,0.78
4726.00,0.78
4725.00,0.78
4724.00,0.78
4723.00,0.78
4722.00,0.78
4721.00,0.78
4720.00,0.78
4719.00,0.78
4718.00,0.78
4717.00,0.78
4716.00,0.78
4715.00,0.78
4714.00,0.78
4713.00,0.78
4712.00,0.78
4711.00,0.78
4710.00,0.78
4709.00,0.79
4708.00,0.79
4707.00,0.79
4706.00,0.79
4705.00,0.79
4704.00,0.79
4703.00,0.79
4702.00,0.79
4701.00,0.79
4700.00,0.79
4699.00,0.79
4698.00,0.80
4697.00,0.80
4696.00,0.80
4695.00,0.80
4694.00,0.80
4693.00,0.80
4692.00,0.80
4691.00,0.80
4690.00,0.81
4689.00,0.81
4688.00,0.81
4687.00,0.81
4686.00,0.81
4685.00,0.81
4684.00,0.81
4683.00,0.81
4682.00,0.81
4681.00,0.81
4680.00,0.81
4679.00,0.81
4678.00,0.81
4677.00,0.81
4676.00,0.81
4675.00,0.82
4674.00,0.82
4673.00,0.82
4672.00,0.82
4671.00,0.82
4670.00,0.82
4669.00,0.82
4668.00,0.82
4667.00,0.82
4666.00,0.82
4665.00,0.82
4664.00,0.82
4663.00,0.82
4662.00,0.83
4661.00,0.83
4660.00,0.83
4659.00,0.83
4658.00,0.83
4657.00,0.83
4656.00,0.83
4655.00,0.83
4654.00,0.83
4653.00,0.83
4652.00,0.83
4651.00,0.83
4650.00,0.83
4649.00,0.83
4648.00,0.83
4647.00,0.83
4646.00,0.83
4645.00,0.83
4644.00,0.83
4643.00,0.84
4642.00,0.84
4641.00,0.84
4640.00,0.84
4639.00,0.84
4638.00,0.84
4637.00,0.84
4636.00,0.84
4635.00,0.84
4634.00,0.84
4633.00,0.84
4632.00,0.85
4631.00,0.85
4630.00,0.85
4629.00,0.85
4628.00,0.85
4627.00,0.85
4626.00,0.85
4625.00,0.85
4624.00,0.85
4623.00,0.85
4622.00,0.85
4621.00,0.85
4620.00,0.85
4619.00,0.85
4618.00,0.86
4617.00,0.86
4616.00,0.86
4615.00,0.86
4614.00,0.86
4613.00,0.86
4612.00,0.86
4611.00,0.86
4610.00,0.86
4609.00,0.86
4608.00,0.86
4607.00,0.86
4606.00,0.86
4605.00,0.86
4604.00,0.87
4603.00,0.87
4602.00,0.87
4601.00,0.87
4600.00,0.87
4599.00,0.87
4598.00,0.87
4597.00,0.87
4596.00,0.87
4595.00,0.87
4594.00,0.87
4593.00,0.87
4592.00,0.87
4591.00,0.87
4590.00,0.87
4589.00,0.87
4588.00,0.87
4587.00,0.87
4586.00,0.87
4585.00,0.87
4584.00,0.87
4583.00,0.87
4582.00,0.87
4581.00,0.87
4580.00,0.87
4579.00,0.87
4578.00,0.87
4577.00,0.87
4576.00,0.87
4575.00,0.87
4574.00,0.88
4573.00,0.88
4572.00,0.88
4571.00,0.88
4570.00,0.88
4569.00,0.88
4568.00,0.88
4567.00,0.88
4566.00,0.88
4565.00,0.88
4564.00,0.88
4563.00,0.89
4562.00,0.89
4561.00,0.89
4560.00,0.89
4559.00,0.89
4558.00,0.89
4557.00,0.89
4556.00,0.89
4555.00,0.89
4554.00,0.89
4553.00,0.89
4552.00,0.90
4551.00,0.90
4550.00,0.90
4549.00,0.90
4548.00,0.90
4547.00,0.90
4546.00,0.90
4545.00,0.90
4544.00,0.90
4543.00,0.90
4542.00,0.90
4541.00,0.90
4540.00,0.90
4539.00,0.90
4538.00,0.90
4537.00,0.90
4536.00,0.90
4535.00,0.90
4534.00,0.90
4533.00,0.90
4532.00,0.90
4531.00,0.90
4530.00,0.90
4529.00,0.90
4528.00,0.91
4527.00,0.91
4526.00,0.91
4525.00,0.91
4524.00,0.91
4523.00,0.91
4522.00,0.91
4521.00,0.91
4520.00,0.91
4519.00,0.91
4518.00,0.91
4517.00,0.91
4516.00,0.91
4515.00,0.91
4514.00,0.91
4513.00,0.91
4512.00,0.91
4511.00,0.91
4510.00,0.91
4509.00,0.91
4508.00,0.91
4507.00,0.91
4506.00,0.90
4505.00,0.90
4504.00,0.90
4503.00,0.90
4502.00,0.90
4501.00,0.90
4500.00,0.90
4499.00,0.90
4498.00,0.90
4497.00,0.90
4496.00,0.90
4495.00,0.90
4494.00,0.90
4493.00,0.90
4492.00,0.90
4491.00,0.90
4490.00,0.90
4489.00,0.90
4488.00,0.90
4487.00,0.90
4486.00,0.90
4485.00,0.90
4484.00,0.90
4483.00,0.90
4482.00,0.89
4481.00,0.89
4480.00,0.89
4479.00,0.89
4478.00,0.89
4477.00,0.89
4476.00,0.89
4475.00,0.89
4474.00,0.89
4473.00,0.89
4472.00,0.89
4471.00,0.89
4470.00,0.89
4469.00,0.89
4468.00,0.89
4467.00,0.88
4466.00,0.88
4465.00,0.88
4464.00,0.88
4463.00,0.88
4462.00,0.88
4461.00,0.88
4460.00,0.88
4459.00,0.88
4458.00,0.87
4457.00,0.87
4456.00,0.87
4455.00,0.87
4454.00,0.87
4453.00,0.87
4452.00,0.86
4451.00,0.86
4450.00,0.86
4449.00,0.86
4448.00,0.86
4447.00,0.86
4446.00,0.86
4445.00,0.85
4444.00,0.85
4443.00,0.85
4442.00,0.85
4441.00,0.85
4440.00,0.85
4439.00,0.85
4438.00,0.85
4437.00,0.85
4436.00,0.84
4435.00,0.84
4434.00,0.84
4433.00,0.84
4432.00,0.84
4431.00,0.84
4430.00,0.84
4429.00,0.84
4428.00,0.83
4427.00,0.83
4426.00,0.83
4425.00,0.83
4424.00,0.83
4423.00,0.83
4422.00,0.83
4421.00,0.83
4420.00,0.83
4419.00,0.83
4418.00,0.83
4417.00,0.83
4416.00,0.83
4415.00,0.83
4414.00,0.83
4413.00,0.83
4412.00,0.83
4411.00,0.83
4410.00,0.83
4409.00,0.83
4408.00,0.83
4407.00,0.83
4406.00,0.83
4405.00,0.83
4404.00,0.83
4403.00,0.83
4402.00,0.83
4401.00,0.83
4400.00,0.83
4399.00,0.83
4398.00,0.83
4397.00,0.83
4396.00,0.83
4395.00,0.83
4394.00,0.83
4393.00,0.84
4392.00,0.84
4391.00,0.84
4390.00,0.84
4389.00,0.84
4388.00,0.84
4387.00,0.84
4386.00,0.84
4385.00,0.84
4384.00,0.85
4383.00,0.85
4382.00,0.85
4381.00,0.85
4380.00,0.85
4379.00,0.85
4378.00,0.85
4377.00,0.85
4376.00,0.85
4375.00,0.85
4374.00,0.85
4373.00,0.85
4372.00,0.86
4371.00,0.86
4370.00,0.86
4369.00,0.86
4368.00,0.86
4367.00,0.86
4366.00,0.86
4365.00,0.86
4364.00,0.86
4363.00,0.86
4362.00,0.86
4361.00,0.86
4360.00,0.86
4359.00,0.86
4358.00,0.86
4357.00,0.86
4356.00,0.85
4355.00,0.85
4354.00,0.85
4353.00,0.85
4352.00,0.85
4351.00,0.85
4350.00,0.85
4349.00,0.85
4348.00,0.85
4347.00,0.85
4346.00,0.85
4345.00,0.85
4344.00,0.85
4343.00,0.85
4342.00,0.85
4341.00,0.85
4340.00,0.85
4339.00,0.85
4338.00,0.86
4337.00,0.86
4336.00,0.86
4335.00,0.86
4334.00,0.86
4333.00,0.86
4332.00,0.86
4331.00,0.86
4330.00,0.86
4329.00,0.86
4328.00,0.86
4327.00,0.86
4326.00,0.86
4325.00,0.86
4324.00,0.86
4323.00,0.86
4322.00,0.86
4321.00,0.86
4320.00,0.86
4319.00,0.87
4318.00,0.87
4317.00,0.87
4316.00,0.87
4315.00,0.87
4314.00,0.87
4313.00,0.87
4312.00,0.87
4311.00,0.87
4310.00,0.87
4309.00,0.87
4308.00,0.87
4307.00,0.88
4306.00,0.88
4305.00,0.88
4304.00,0.88
4303.00,0.88
4302.00,0.88
4301.00,0.88
4300.00,0.88
4299.00,0.89
4298.00,0.89
4297.00,0.89
4296.00,0.89
4295.00,0.89
4294.00,0.89
4293.00,0.89
4292.00,0.89
4291.00,0.89
4290.00,0.89
4289.00,0.89
4288.00,0.89
4287.00,0.89
4286.00,0.89
4285.00,0.89
4284.00,0.89
4283.00,0.90
4282.00,0.90
4281.00,0.90
4280.00,0.90
4279.00,0.90
4278.00,0.90
4277.00,0.90
4276.00,0.90
4275.00,0.90
4274.00,0.90
4273.00,0.90
4272.00,0.90
4271.00,0.90
4270.00,0.90
4269.00,0.90
4268.00,0.90
4267.00,0.90
4266.00,0.90
4265.00,0.90
4264.00,0.90
4263.00,0.90
4262.00,0.90
4261.00,0.90
4260.00,0.90
4259.00,0.90
4258.00,0.90
4257.00,0.90
4256.00,0.90
4255.00,0.90
4254.00,0.90
4253.00,0.90
4252.00,0.90
4251.00,0.90
4250.00,0.90
4249.00,0.90
4248.00,0.90
4247.00,0.90
4246.00,0.90
4245.00,0.90
4244.00,0.90
4243.00,0.90
4242.00,0.90
4241.00,0.90
4240.00,0.90
4239.00,0.90
4238.00,0.90
4237.00,0.90
4236.00,0.90
4235.00,0.90
4234.00,0.90
4233.00,0.90
4232.00,0.90
4231.00,0.90
4230.00,0.90
4229.00,0.90
4228.00,0.90
4227.00,0.90
4226.00,0.90
4225.00,0.90
4224.00,0.90
4223.00,0.91
4222.00,0.91
4221.00,0.91
4220.00,0.91
4219.00,0.91
4218.00,0.91
4217.00,0.91
4216.00,0.91
4215.00,0.91
4214.00,0.91
4213.00,0.91
4212.00,0.92
4211.00,0.92
4210.00,0.92
4209.00,0.92
4208.00,0.92
4207.00,0.92
4206.00,0.92
4205.00,0.92
4204.00,0.92
4203.00,0.92
4202.00,0.92
4201.00,0.92
4200.00,0.92
4199.00,0.92
4198.00,0.92
4197.00,0.92
4196.00,0.92
4195.00,0.92
4194.00,0.92
4193.00,0.92
4192.00,0.92
4191.00,0.92
4190.00,0.92
4189.00,0.92
4188.00,0.92
4187.00,0.92
4186.00,0.93
4185.00,0.93
4184.00,0.93
4183.00,0.93
4182.00,0.93
4181.00,0.93
4180.00,0.93
4179.00,0.93
4178.00,0.93
4177.00,0.93
4176.00,0.93
4175.00,0.93
4174.00,0.93
4173.00,0.93
4172.00,0.93
4171.00,0.93
4170.00,0.93
4169.00,0.93
4168.00,0.93
4167.00,0.93
4166.00,0.93
4165.00,0.93
4164.00,0.93
4163.00,0.93
4162.00,0.93
4161.00,0.93
4160.00,0.93
4159.00,0.93
4158.00,0.93
4157.00,0.93
4156.00,0.94
4155.00,0.94
4154.00,0.94
4153.00,0.94
4152.00,0.94
4151.00,0.94
4150.00,0.94
4149.00,0.94
4148.00,0.94
4147.00,0.94
4146.00,0.94
4145.00,0.94
4144.00,0.94
4143.00,0.94
4142.00,0.94
4141.00,0.94
4140.00,0.94
4139.00,0.94
4138.00,0.94
4137.00,0.94
4136.00,0.94
4135.00,0.94
4134.00,0.94
4133.00,0.94
4132.00,0.94
4131.00,0.94
4130.00,0.94
4129.00,0.94
4128.00,0.94
4127.00,0.94
4126.00,0.94
4125.00,0.94
4124.00,0.94
4123.00,0.94
4122.00,0.94
4121.00,0.95
4120.00,0.95
4119.00,0.95
4118.00,0.95
4117.00,0.95
4116.00,0.95
4115.00,0.95
4114.00,0.95
4113.00,0.95
4112.00,0.95
4111.00,0.95
4110.00,0.95
4109.00,0.96
4108.00,0.96
4107.00,0.96
4106.00,0.96
4105.00,0.96
4104.00,0.96
4103.00,0.96
4102.00,0.96
4101.00,0.96
4100.00,0.96
4099.00,0.96
4098.00,0.96
4097.00,0.96
4096.00,0.96
4095.00,0.96
4094.00,0.96
4093.00,0.96
4092.00,0.96
4091.00,0.96
4090.00,0.96
4089.00,0.96
4088.00,0.96
4087.00,0.96
4086.00,0.96
4085.00,0.96
4084.00,0.96
4083.00,0.96
4082.00,0.95
4081.00,0.95
4080.00,0.95
4079.00,0.95
4078.00,0.95
4077.00,0.96
4076.00,0.96
4075.00,0.96
4074.00,0.96
4073.00,0.96
4072.00,0.96
4071.00,0.96
4070.00,0.96
4069.00,0.97
4068.00,0.97
4067.00,0.97
4066.00,0.97
4065.00,0.97
4064.00,0.97
4063.00,0.97
4062.00,0.98
4061.00,0.98
4060.00,0.98
4059.00,0.98
4058.00,0.98
4057.00,0.98
4056.00,0.97
4055.00,0.97
4054.00,0.97
4053.00,0.97
4052.00,0.97
4051.00,0.97
4050.00,0.97
4049.00,0.97
4048.00,0.97
4047.00,0.97
4046.00,0.97
4045.00,0.98
4044.00,0.98
4043.00,0.98
4042.00,0.98
4041.00,0.98
4040.00,0.98
4039.00,0.98
4038.00,0.99
4037.00,0.99
4036.00,0.99
4035.00,0.99
4034.00,0.99
4033.00,0.99
4032.00,0.99
4031.00,0.99
4030.00,0.99
4029.00,0.99
4028.00,0.99
4027.00,0.99
4026.00,0.99
4025.00,0.99
4024.00,0.99
4023.00,0.99
4022.00,0.99
4021.00,0.99
4020.00,0.99
4019.00,0.99
4018.00,0.99
4017.00,0.99
4016.00,0.99
4015.00,0.99
4014.00,0.99
4013.00,0.99
4012.00,0.99
4011.00,0.99
4010.00,0.99
4009.00,1.00
4008.00,1.00
4007.00,1.00
4006.00,1.00
4005.00,1.00
4004.00,1.00
4003.00,1.00
4002.00,1.00
4001.00,1.00
4000.00,1.00
