创建为新数据集,样品 387 用户 Administrator 日期 星期四, 三月 08 2018
cm-1,%T
10000.00,0.93
9999.00,0.93
9998.00,0.94
9997.00,0.94
9996.00,0.94
9995.00,0.94
9994.00,0.94
9993.00,0.95
9992.00,0.95
9991.00,0.95
9990.00,0.95
9989.00,0.95
9988.00,0.95
9987.00,0.95
9986.00,0.95
9985.00,0.95
9984.00,0.95
9983.00,0.95
9982.00,0.95
9981.00,0.95
9980.00,0.95
9979.00,0.95
9978.00,0.94
9977.00,0.94
9976.00,0.94
9975.00,0.94
9974.00,0.94
9973.00,0.94
9972.00,0.93
9971.00,0.93
9970.00,0.93
9969.00,0.93
9968.00,0.93
9967.00,0.93
9966.00,0.93
9965.00,0.93
9964.00,0.93
9963.00,0.93
9962.00,0.94
9961.00,0.94
9960.00,0.94
9959.00,0.94
9958.00,0.94
9957.00,0.94
9956.00,0.94
9955.00,0.94
9954.00,0.94
9953.00,0.94
9952.00,0.94
9951.00,0.94
9950.00,0.94
9949.00,0.94
9948.00,0.93
9947.00,0.93
9946.00,0.93
9945.00,0.93
9944.00,0.93
9943.00,0.93
9942.00,0.93
9941.00,0.93
9940.00,0.93
9939.00,0.93
9938.00,0.92
9937.00,0.92
9936.00,0.92
9935.00,0.92
9934.00,0.92
9933.00,0.92
9932.00,0.91
9931.00,0.91
9930.00,0.91
9929.00,0.91
9928.00,0.91
9927.00,0.90
9926.00,0.90
9925.00,0.90
9924.00,0.90
9923.00,0.90
9922.00,0.90
9921.00,0.90
9920.00,0.90
9919.00,0.90
9918.00,0.90
9917.00,0.90
9916.00,0.90
9915.00,0.90
9914.00,0.90
9913.00,0.90
9912.00,0.90
9911.00,0.90
9910.00,0.90
9909.00,0.90
9908.00,0.89
9907.00,0.89
9906.00,0.90
9905.00,0.90
9904.00,0.90
9903.00,0.90
9902.00,0.90
9901.00,0.90
9900.00,0.90
9899.00,0.91
9898.00,0.91
9897.00,0.91
9896.00,0.92
9895.00,0.92
9894.00,0.92
9893.00,0.93
9892.00,0.93
9891.00,0.93
9890.00,0.94
9889.00,0.94
9888.00,0.94
9887.00,0.95
9886.00,0.95
9885.00,0.95
9884.00,0.95
9883.00,0.95
9882.00,0.95
9881.00,0.95
9880.00,0.95
9879.00,0.95
9878.00,0.95
9877.00,0.95
9876.00,0.95
9875.00,0.94
9874.00,0.94
9873.00,0.94
9872.00,0.94
9871.00,0.94
9870.00,0.94
9869.00,0.94
9868.00,0.94
9867.00,0.94
9866.00,0.93
9865.00,0.93
9864.00,0.93
9863.00,0.93
9862.00,0.93
9861.00,0.93
9860.00,0.93
9859.00,0.92
9858.00,0.92
9857.00,0.92
9856.00,0.92
9855.00,0.91
9854.00,0.91
9853.00,0.91
9852.00,0.91
9851.00,0.91
9850.00,0.90
9849.00,0.90
9848.00,0.90
9847.00,0.90
9846.00,0.91
9845.00,0.91
9844.00,0.91
9843.00,0.91
9842.00,0.91
9841.00,0.91
9840.00,0.91
9839.00,0.91
9838.00,0.92
9837.00,0.92
9836.00,0.92
9835.00,0.92
9834.00,0.92
9833.00,0.92
9832.00,0.92
9831.00,0.92
9830.00,0.92
9829.00,0.92
9828.00,0.92
9827.00,0.92
9826.00,0.92
9825.00,0.92
9824.00,0.92
9823.00,0.92
9822.00,0.92
9821.00,0.92
9820.00,0.92
9819.00,0.92
9818.00,0.92
9817.00,0.92
9816.00,0.92
9815.00,0.92
9814.00,0.91
9813.00,0.91
9812.00,0.91
9811.00,0.91
9810.00,0.91
9809.00,0.91
9808.00,0.91
9807.00,0.91
9806.00,0.91
9805.00,0.91
9804.00,0.90
9803.00,0.90
9802.00,0.90
9801.00,0.90
9800.00,0.90
9799.00,0.90
9798.00,0.90
9797.00,0.90
9796.00,0.90
9795.00,0.90
9794.00,0.90
9793.00,0.90
9792.00,0.90
9791.00,0.90
9790.00,0.90
9789.00,0.90
9788.00,0.90
9787.00,0.90
9786.00,0.90
9785.00,0.90
9784.00,0.90
9783.00,0.90
9782.00,0.90
9781.00,0.91
9780.00,0.91
9779.00,0.91
9778.00,0.91
9777.00,0.91
9776.00,0.91
9775.00,0.92
9774.00,0.92
9773.00,0.92
9772.00,0.92
9771.00,0.92
9770.00,0.93
9769.00,0.93
9768.00,0.93
9767.00,0.93
9766.00,0.94
9765.00,0.94
9764.00,0.94
9763.00,0.94
9762.00,0.94
9761.00,0.95
9760.00,0.95
9759.00,0.95
9758.00,0.95
9757.00,0.95
9756.00,0.95
9755.00,0.95
9754.00,0.95
9753.00,0.95
9752.00,0.95
9751.00,0.95
9750.00,0.95
9749.00,0.95
9748.00,0.94
9747.00,0.94
9746.00,0.94
9745.00,0.93
9744.00,0.93
9743.00,0.93
9742.00,0.92
9741.00,0.92
9740.00,0.92
9739.00,0.91
9738.00,0.91
9737.00,0.91
9736.00,0.91
9735.00,0.90
9734.00,0.90
9733.00,0.90
9732.00,0.90
9731.00,0.90
9730.00,0.90
9729.00,0.90
9728.00,0.90
9727.00,0.90
9726.00,0.90
9725.00,0.91
9724.00,0.91
9723.00,0.91
9722.00,0.91
9721.00,0.91
9720.00,0.91
9719.00,0.91
9718.00,0.91
9717.00,0.91
9716.00,0.91
9715.00,0.91
9714.00,0.91
9713.00,0.91
9712.00,0.91
9711.00,0.91
9710.00,0.91
9709.00,0.91
9708.00,0.91
9707.00,0.91
9706.00,0.91
9705.00,0.91
9704.00,0.91
9703.00,0.91
9702.00,0.91
9701.00,0.90
9700.00,0.90
9699.00,0.90
9698.00,0.90
9697.00,0.90
9696.00,0.90
9695.00,0.90
9694.00,0.90
9693.00,0.90
9692.00,0.90
9691.00,0.90
9690.00,0.91
9689.00,0.91
9688.00,0.91
9687.00,0.91
9686.00,0.91
9685.00,0.92
9684.00,0.92
9683.00,0.92
9682.00,0.92
9681.00,0.92
9680.00,0.93
9679.00,0.93
9678.00,0.93
9677.00,0.93
9676.00,0.93
9675.00,0.93
9674.00,0.93
9673.00,0.93
9672.00,0.93
9671.00,0.93
9670.00,0.94
9669.00,0.94
9668.00,0.94
9667.00,0.94
9666.00,0.94
9665.00,0.94
9664.00,0.94
9663.00,0.94
9662.00,0.94
9661.00,0.95
9660.00,0.95
9659.00,0.95
9658.00,0.95
9657.00,0.95
9656.00,0.95
9655.00,0.95
9654.00,0.95
9653.00,0.95
9652.00,0.94
9651.00,0.94
9650.00,0.94
9649.00,0.94
9648.00,0.94
9647.00,0.94
9646.00,0.94
9645.00,0.94
9644.00,0.94
9643.00,0.94
9642.00,0.94
9641.00,0.94
9640.00,0.94
9639.00,0.95
9638.00,0.95
9637.00,0.95
9636.00,0.95
9635.00,0.95
9634.00,0.95
9633.00,0.95
9632.00,0.95
9631.00,0.95
9630.00,0.95
9629.00,0.94
9628.00,0.94
9627.00,0.94
9626.00,0.94
9625.00,0.94
9624.00,0.94
9623.00,0.94
9622.00,0.93
9621.00,0.93
9620.00,0.93
9619.00,0.93
9618.00,0.93
9617.00,0.93
9616.00,0.93
9615.00,0.92
9614.00,0.92
9613.00,0.93
9612.00,0.93
9611.00,0.93
9610.00,0.93
9609.00,0.93
9608.00,0.93
9607.00,0.93
9606.00,0.94
9605.00,0.94
9604.00,0.94
9603.00,0.94
9602.00,0.95
9601.00,0.95
9600.00,0.95
9599.00,0.95
9598.00,0.95
9597.00,0.95
9596.00,0.95
9595.00,0.95
9594.00,0.95
9593.00,0.95
9592.00,0.95
9591.00,0.95
9590.00,0.95
9589.00,0.95
9588.00,0.95
9587.00,0.95
9586.00,0.95
9585.00,0.95
9584.00,0.94
9583.00,0.94
9582.00,0.94
9581.00,0.94
9580.00,0.94
9579.00,0.94
9578.00,0.94
9577.00,0.94
9576.00,0.94
9575.00,0.94
9574.00,0.93
9573.00,0.93
9572.00,0.93
9571.00,0.93
9570.00,0.93
9569.00,0.93
9568.00,0.93
9567.00,0.93
9566.00,0.93
9565.00,0.93
9564.00,0.93
9563.00,0.93
9562.00,0.93
9561.00,0.92
9560.00,0.92
9559.00,0.92
9558.00,0.93
9557.00,0.93
9556.00,0.93
9555.00,0.93
9554.00,0.93
9553.00,0.93
9552.00,0.93
9551.00,0.93
9550.00,0.93
9549.00,0.93
9548.00,0.93
9547.00,0.93
9546.00,0.93
9545.00,0.93
9544.00,0.94
9543.00,0.94
9542.00,0.94
9541.00,0.94
9540.00,0.94
9539.00,0.94
9538.00,0.94
9537.00,0.94
9536.00,0.94
9535.00,0.94
9534.00,0.94
9533.00,0.94
9532.00,0.94
9531.00,0.94
9530.00,0.94
9529.00,0.94
9528.00,0.94
9527.00,0.94
9526.00,0.94
9525.00,0.94
9524.00,0.94
9523.00,0.94
9522.00,0.93
9521.00,0.93
9520.00,0.93
9519.00,0.93
9518.00,0.92
9517.00,0.92
9516.00,0.92
9515.00,0.92
9514.00,0.92
9513.00,0.91
9512.00,0.91
9511.00,0.91
9510.00,0.91
9509.00,0.91
9508.00,0.91
9507.00,0.91
9506.00,0.91
9505.00,0.92
9504.00,0.92
9503.00,0.92
9502.00,0.92
9501.00,0.92
9500.00,0.92
9499.00,0.92
9498.00,0.93
9497.00,0.93
9496.00,0.93
9495.00,0.93
9494.00,0.93
9493.00,0.93
9492.00,0.93
9491.00,0.93
9490.00,0.93
9489.00,0.93
9488.00,0.93
9487.00,0.93
9486.00,0.93
9485.00,0.93
9484.00,0.92
9483.00,0.92
9482.00,0.92
9481.00,0.92
9480.00,0.92
9479.00,0.92
9478.00,0.92
9477.00,0.92
9476.00,0.91
9475.00,0.91
9474.00,0.91
9473.00,0.91
9472.00,0.91
9471.00,0.91
9470.00,0.91
9469.00,0.91
9468.00,0.91
9467.00,0.91
9466.00,0.91
9465.00,0.91
9464.00,0.91
9463.00,0.91
9462.00,0.91
9461.00,0.91
9460.00,0.91
9459.00,0.91
9458.00,0.91
9457.00,0.91
9456.00,0.91
9455.00,0.91
9454.00,0.91
9453.00,0.91
9452.00,0.92
9451.00,0.92
9450.00,0.92
9449.00,0.92
9448.00,0.92
9447.00,0.93
9446.00,0.93
9445.00,0.93
9444.00,0.93
9443.00,0.93
9442.00,0.94
9441.00,0.94
9440.00,0.94
9439.00,0.94
9438.00,0.94
9437.00,0.94
9436.00,0.94
9435.00,0.94
9434.00,0.94
9433.00,0.94
9432.00,0.94
9431.00,0.94
9430.00,0.94
9429.00,0.94
9428.00,0.94
9427.00,0.94
9426.00,0.94
9425.00,0.94
9424.00,0.94
9423.00,0.94
9422.00,0.94
9421.00,0.93
9420.00,0.93
9419.00,0.93
9418.00,0.93
9417.00,0.93
9416.00,0.93
9415.00,0.92
9414.00,0.92
9413.00,0.92
9412.00,0.92
9411.00,0.92
9410.00,0.92
9409.00,0.92
9408.00,0.92
9407.00,0.91
9406.00,0.91
9405.00,0.91
9404.00,0.91
9403.00,0.91
9402.00,0.91
9401.00,0.91
9400.00,0.91
9399.00,0.91
9398.00,0.91
9397.00,0.91
9396.00,0.91
9395.00,0.91
9394.00,0.91
9393.00,0.91
9392.00,0.91
9391.00,0.91
9390.00,0.91
9389.00,0.91
9388.00,0.91
9387.00,0.91
9386.00,0.91
9385.00,0.91
9384.00,0.91
9383.00,0.91
9382.00,0.91
9381.00,0.91
9380.00,0.91
9379.00,0.91
9378.00,0.91
9377.00,0.91
9376.00,0.91
9375.00,0.91
9374.00,0.91
9373.00,0.91
9372.00,0.91
9371.00,0.91
9370.00,0.91
9369.00,0.91
9368.00,0.91
9367.00,0.91
9366.00,0.91
9365.00,0.91
9364.00,0.91
9363.00,0.91
9362.00,0.91
9361.00,0.92
9360.00,0.92
9359.00,0.92
9358.00,0.92
9357.00,0.92
9356.00,0.92
9355.00,0.92
9354.00,0.93
9353.00,0.93
9352.00,0.93
9351.00,0.93
9350.00,0.93
9349.00,0.93
9348.00,0.93
9347.00,0.93
9346.00,0.93
9345.00,0.93
9344.00,0.93
9343.00,0.93
9342.00,0.93
9341.00,0.93
9340.00,0.93
9339.00,0.93
9338.00,0.93
9337.00,0.93
9336.00,0.93
9335.00,0.94
9334.00,0.94
9333.00,0.94
9332.00,0.94
9331.00,0.94
9330.00,0.94
9329.00,0.94
9328.00,0.94
9327.00,0.94
9326.00,0.94
9325.00,0.94
9324.00,0.94
9323.00,0.94
9322.00,0.94
9321.00,0.94
9320.00,0.94
9319.00,0.94
9318.00,0.94
9317.00,0.94
9316.00,0.94
9315.00,0.94
9314.00,0.94
9313.00,0.94
9312.00,0.94
9311.00,0.94
9310.00,0.94
9309.00,0.94
9308.00,0.94
9307.00,0.94
9306.00,0.94
9305.00,0.94
9304.00,0.94
9303.00,0.94
9302.00,0.94
9301.00,0.94
9300.00,0.94
9299.00,0.94
9298.00,0.93
9297.00,0.93
9296.00,0.93
9295.00,0.93
9294.00,0.93
9293.00,0.93
9292.00,0.93
9291.00,0.93
9290.00,0.93
9289.00,0.93
9288.00,0.93
9287.00,0.93
9286.00,0.93
9285.00,0.93
9284.00,0.93
9283.00,0.93
9282.00,0.93
9281.00,0.94
9280.00,0.94
9279.00,0.94
9278.00,0.94
9277.00,0.94
9276.00,0.94
9275.00,0.95
9274.00,0.95
9273.00,0.95
9272.00,0.95
9271.00,0.95
9270.00,0.95
9269.00,0.95
9268.00,0.95
9267.00,0.95
9266.00,0.95
9265.00,0.95
9264.00,0.95
9263.00,0.95
9262.00,0.95
9261.00,0.95
9260.00,0.95
9259.00,0.94
9258.00,0.94
9257.00,0.94
9256.00,0.94
9255.00,0.94
9254.00,0.94
9253.00,0.94
9252.00,0.94
9251.00,0.94
9250.00,0.94
9249.00,0.94
9248.00,0.94
9247.00,0.94
9246.00,0.94
9245.00,0.94
9244.00,0.94
9243.00,0.94
9242.00,0.94
9241.00,0.94
9240.00,0.94
9239.00,0.94
9238.00,0.94
9237.00,0.94
9236.00,0.94
9235.00,0.94
9234.00,0.94
9233.00,0.94
9232.00,0.94
9231.00,0.94
9230.00,0.94
9229.00,0.94
9228.00,0.94
9227.00,0.94
9226.00,0.94
9225.00,0.94
9224.00,0.94
9223.00,0.94
9222.00,0.94
9221.00,0.93
9220.00,0.93
9219.00,0.93
9218.00,0.93
9217.00,0.93
9216.00,0.93
9215.00,0.92
9214.00,0.92
9213.00,0.92
9212.00,0.92
9211.00,0.92
9210.00,0.92
9209.00,0.92
9208.00,0.92
9207.00,0.92
9206.00,0.92
9205.00,0.92
9204.00,0.92
9203.00,0.92
9202.00,0.92
9201.00,0.92
9200.00,0.92
9199.00,0.92
9198.00,0.92
9197.00,0.92
9196.00,0.93
9195.00,0.93
9194.00,0.93
9193.00,0.93
9192.00,0.93
9191.00,0.94
9190.00,0.94
9189.00,0.94
9188.00,0.94
9187.00,0.94
9186.00,0.94
9185.00,0.95
9184.00,0.95
9183.00,0.95
9182.00,0.95
9181.00,0.95
9180.00,0.95
9179.00,0.95
9178.00,0.95
9177.00,0.95
9176.00,0.95
9175.00,0.95
9174.00,0.95
9173.00,0.95
9172.00,0.95
9171.00,0.95
9170.00,0.95
9169.00,0.95
9168.00,0.95
9167.00,0.95
9166.00,0.94
9165.00,0.94
9164.00,0.94
9163.00,0.94
9162.00,0.94
9161.00,0.94
9160.00,0.94
9159.00,0.94
9158.00,0.94
9157.00,0.93
9156.00,0.93
9155.00,0.93
9154.00,0.93
9153.00,0.93
9152.00,0.93
9151.00,0.93
9150.00,0.93
9149.00,0.93
9148.00,0.93
9147.00,0.94
9146.00,0.94
9145.00,0.94
9144.00,0.94
9143.00,0.94
9142.00,0.93
9141.00,0.93
9140.00,0.93
9139.00,0.93
9138.00,0.93
9137.00,0.93
9136.00,0.93
9135.00,0.93
9134.00,0.93
9133.00,0.93
9132.00,0.93
9131.00,0.93
9130.00,0.93
9129.00,0.93
9128.00,0.93
9127.00,0.93
9126.00,0.93
9125.00,0.93
9124.00,0.93
9123.00,0.93
9122.00,0.93
9121.00,0.93
9120.00,0.93
9119.00,0.93
9118.00,0.93
9117.00,0.92
9116.00,0.92
9115.00,0.92
9114.00,0.92
9113.00,0.92
9112.00,0.92
9111.00,0.92
9110.00,0.92
9109.00,0.92
9108.00,0.92
9107.00,0.92
9106.00,0.92
9105.00,0.92
9104.00,0.92
9103.00,0.92
9102.00,0.92
9101.00,0.93
9100.00,0.93
9099.00,0.93
9098.00,0.93
9097.00,0.93
9096.00,0.93
9095.00,0.93
9094.00,0.94
9093.00,0.94
9092.00,0.94
9091.00,0.94
9090.00,0.94
9089.00,0.94
9088.00,0.94
9087.00,0.94
9086.00,0.95
9085.00,0.95
9084.00,0.95
9083.00,0.95
9082.00,0.94
9081.00,0.94
9080.00,0.94
9079.00,0.94
9078.00,0.94
9077.00,0.94
9076.00,0.94
9075.00,0.94
9074.00,0.94
9073.00,0.94
9072.00,0.94
9071.00,0.94
9070.00,0.94
9069.00,0.95
9068.00,0.95
9067.00,0.95
9066.00,0.95
9065.00,0.95
9064.00,0.95
9063.00,0.95
9062.00,0.95
9061.00,0.95
9060.00,0.95
9059.00,0.95
9058.00,0.95
9057.00,0.95
9056.00,0.95
9055.00,0.95
9054.00,0.95
9053.00,0.95
9052.00,0.94
9051.00,0.94
9050.00,0.94
9049.00,0.94
9048.00,0.94
9047.00,0.94
9046.00,0.94
9045.00,0.93
9044.00,0.93
9043.00,0.93
9042.00,0.93
9041.00,0.93
9040.00,0.93
9039.00,0.93
9038.00,0.92
9037.00,0.92
9036.00,0.92
9035.00,0.93
9034.00,0.93
9033.00,0.93
9032.00,0.93
9031.00,0.93
9030.00,0.93
9029.00,0.94
9028.00,0.94
9027.00,0.94
9026.00,0.94
9025.00,0.94
9024.00,0.95
9023.00,0.95
9022.00,0.95
9021.00,0.95
9020.00,0.95
9019.00,0.95
9018.00,0.95
9017.00,0.95
9016.00,0.95
9015.00,0.95
9014.00,0.95
9013.00,0.95
9012.00,0.95
9011.00,0.94
9010.00,0.94
9009.00,0.94
9008.00,0.94
9007.00,0.94
9006.00,0.94
9005.00,0.94
9004.00,0.94
9003.00,0.94
9002.00,0.94
9001.00,0.94
9000.00,0.94
8999.00,0.95
8998.00,0.95
8997.00,0.95
8996.00,0.95
8995.00,0.95
8994.00,0.95
8993.00,0.95
8992.00,0.95
8991.00,0.95
8990.00,0.94
8989.00,0.94
8988.00,0.94
8987.00,0.94
8986.00,0.94
8985.00,0.94
8984.00,0.94
8983.00,0.94
8982.00,0.94
8981.00,0.94
8980.00,0.94
8979.00,0.94
8978.00,0.94
8977.00,0.94
8976.00,0.94
8975.00,0.94
8974.00,0.94
8973.00,0.94
8972.00,0.94
8971.00,0.94
8970.00,0.94
8969.00,0.94
8968.00,0.94
8967.00,0.94
8966.00,0.94
8965.00,0.94
8964.00,0.94
8963.00,0.94
8962.00,0.94
8961.00,0.94
8960.00,0.94
8959.00,0.94
8958.00,0.94
8957.00,0.94
8956.00,0.94
8955.00,0.94
8954.00,0.94
8953.00,0.94
8952.00,0.94
8951.00,0.94
8950.00,0.94
8949.00,0.94
8948.00,0.94
8947.00,0.95
8946.00,0.95
8945.00,0.95
8944.00,0.95
8943.00,0.95
8942.00,0.95
8941.00,0.95
8940.00,0.95
8939.00,0.95
8938.00,0.95
8937.00,0.95
8936.00,0.95
8935.00,0.95
8934.00,0.95
8933.00,0.95
8932.00,0.94
8931.00,0.94
8930.00,0.94
8929.00,0.94
8928.00,0.94
8927.00,0.94
8926.00,0.94
8925.00,0.93
8924.00,0.93
8923.00,0.93
8922.00,0.93
8921.00,0.93
8920.00,0.93
8919.00,0.93
8918.00,0.93
8917.00,0.93
8916.00,0.93
8915.00,0.93
8914.00,0.92
8913.00,0.92
8912.00,0.92
8911.00,0.92
8910.00,0.92
8909.00,0.92
8908.00,0.92
8907.00,0.92
8906.00,0.92
8905.00,0.92
8904.00,0.93
8903.00,0.93
8902.00,0.93
8901.00,0.93
8900.00,0.93
8899.00,0.93
8898.00,0.93
8897.00,0.93
8896.00,0.93
8895.00,0.94
8894.00,0.94
8893.00,0.94
8892.00,0.94
8891.00,0.94
8890.00,0.94
8889.00,0.94
8888.00,0.94
8887.00,0.93
8886.00,0.93
8885.00,0.93
8884.00,0.93
8883.00,0.93
8882.00,0.93
8881.00,0.93
8880.00,0.93
8879.00,0.93
8878.00,0.93
8877.00,0.93
8876.00,0.93
8875.00,0.93
8874.00,0.93
8873.00,0.93
8872.00,0.93
8871.00,0.93
8870.00,0.93
8869.00,0.93
8868.00,0.93
8867.00,0.93
8866.00,0.93
8865.00,0.93
8864.00,0.93
8863.00,0.93
8862.00,0.92
8861.00,0.92
8860.00,0.92
8859.00,0.92
8858.00,0.92
8857.00,0.92
8856.00,0.92
8855.00,0.92
8854.00,0.92
8853.00,0.92
8852.00,0.92
8851.00,0.92
8850.00,0.92
8849.00,0.92
8848.00,0.92
8847.00,0.92
8846.00,0.92
8845.00,0.92
8844.00,0.92
8843.00,0.93
8842.00,0.93
8841.00,0.93
8840.00,0.93
8839.00,0.93
8838.00,0.93
8837.00,0.93
8836.00,0.93
8835.00,0.93
8834.00,0.93
8833.00,0.93
8832.00,0.93
8831.00,0.94
8830.00,0.94
8829.00,0.94
8828.00,0.94
8827.00,0.94
8826.00,0.94
8825.00,0.94
8824.00,0.94
8823.00,0.94
8822.00,0.94
8821.00,0.94
8820.00,0.94
8819.00,0.93
8818.00,0.93
8817.00,0.93
8816.00,0.93
8815.00,0.93
8814.00,0.93
8813.00,0.93
8812.00,0.92
8811.00,0.92
8810.00,0.92
8809.00,0.92
8808.00,0.92
8807.00,0.91
8806.00,0.91
8805.00,0.91
8804.00,0.91
8803.00,0.91
8802.00,0.91
8801.00,0.91
8800.00,0.91
8799.00,0.91
8798.00,0.91
8797.00,0.91
8796.00,0.91
8795.00,0.91
8794.00,0.91
8793.00,0.91
8792.00,0.91
8791.00,0.91
8790.00,0.92
8789.00,0.92
8788.00,0.92
8787.00,0.92
8786.00,0.92
8785.00,0.92
8784.00,0.92
8783.00,0.92
8782.00,0.92
8781.00,0.92
8780.00,0.92
8779.00,0.92
8778.00,0.92
8777.00,0.92
8776.00,0.92
8775.00,0.92
8774.00,0.92
8773.00,0.92
8772.00,0.92
8771.00,0.92
8770.00,0.92
8769.00,0.92
8768.00,0.92
8767.00,0.92
8766.00,0.92
8765.00,0.91
8764.00,0.91
8763.00,0.91
8762.00,0.91
8761.00,0.91
8760.00,0.91
8759.00,0.91
8758.00,0.91
8757.00,0.91
8756.00,0.91
8755.00,0.91
8754.00,0.91
8753.00,0.91
8752.00,0.91
8751.00,0.91
8750.00,0.91
8749.00,0.90
8748.00,0.90
8747.00,0.90
8746.00,0.90
8745.00,0.90
8744.00,0.90
8743.00,0.90
8742.00,0.90
8741.00,0.90
8740.00,0.90
8739.00,0.90
8738.00,0.90
8737.00,0.90
8736.00,0.90
8735.00,0.90
8734.00,0.90
8733.00,0.90
8732.00,0.90
8731.00,0.90
8730.00,0.90
8729.00,0.91
8728.00,0.91
8727.00,0.91
8726.00,0.91
8725.00,0.91
8724.00,0.91
8723.00,0.91
8722.00,0.91
8721.00,0.91
8720.00,0.91
8719.00,0.91
8718.00,0.91
8717.00,0.91
8716.00,0.91
8715.00,0.91
8714.00,0.91
8713.00,0.91
8712.00,0.91
8711.00,0.91
8710.00,0.91
8709.00,0.91
8708.00,0.91
8707.00,0.90
8706.00,0.90
8705.00,0.90
8704.00,0.90
8703.00,0.90
8702.00,0.90
8701.00,0.90
8700.00,0.90
8699.00,0.90
8698.00,0.90
8697.00,0.90
8696.00,0.90
8695.00,0.90
8694.00,0.90
8693.00,0.90
8692.00,0.90
8691.00,0.90
8690.00,0.90
8689.00,0.89
8688.00,0.89
8687.00,0.89
8686.00,0.89
8685.00,0.89
8684.00,0.89
8683.00,0.89
8682.00,0.89
8681.00,0.89
8680.00,0.89
8679.00,0.89
8678.00,0.89
8677.00,0.88
8676.00,0.88
8675.00,0.88
8674.00,0.88
8673.00,0.88
8672.00,0.88
8671.00,0.88
8670.00,0.88
8669.00,0.88
8668.00,0.88
8667.00,0.88
8666.00,0.88
8665.00,0.88
8664.00,0.88
8663.00,0.88
8662.00,0.88
8661.00,0.88
8660.00,0.88
8659.00,0.88
8658.00,0.88
8657.00,0.88
8656.00,0.88
8655.00,0.88
8654.00,0.88
8653.00,0.88
8652.00,0.88
8651.00,0.88
8650.00,0.88
8649.00,0.88
8648.00,0.88
8647.00,0.89
8646.00,0.89
8645.00,0.89
8644.00,0.89
8643.00,0.89
8642.00,0.90
8641.00,0.90
8640.00,0.90
8639.00,0.90
8638.00,0.90
8637.00,0.90
8636.00,0.90
8635.00,0.90
8634.00,0.90
8633.00,0.90
8632.00,0.90
8631.00,0.90
8630.00,0.90
8629.00,0.90
8628.00,0.90
8627.00,0.90
8626.00,0.90
8625.00,0.90
8624.00,0.90
8623.00,0.90
8622.00,0.89
8621.00,0.89
8620.00,0.89
8619.00,0.89
8618.00,0.89
8617.00,0.89
8616.00,0.89
8615.00,0.89
8614.00,0.88
8613.00,0.88
8612.00,0.88
8611.00,0.88
8610.00,0.88
8609.00,0.88
8608.00,0.88
8607.00,0.87
8606.00,0.87
8605.00,0.87
8604.00,0.87
8603.00,0.87
8602.00,0.87
8601.00,0.87
8600.00,0.87
8599.00,0.87
8598.00,0.87
8597.00,0.87
8596.00,0.87
8595.00,0.87
8594.00,0.87
8593.00,0.87
8592.00,0.87
8591.00,0.87
8590.00,0.87
8589.00,0.87
8588.00,0.87
8587.00,0.87
8586.00,0.87
8585.00,0.87
8584.00,0.87
8583.00,0.87
8582.00,0.87
8581.00,0.87
8580.00,0.86
8579.00,0.86
8578.00,0.86
8577.00,0.86
8576.00,0.86
8575.00,0.86
8574.00,0.86
8573.00,0.86
8572.00,0.86
8571.00,0.86
8570.00,0.86
8569.00,0.86
8568.00,0.86
8567.00,0.86
8566.00,0.86
8565.00,0.86
8564.00,0.86
8563.00,0.86
8562.00,0.86
8561.00,0.86
8560.00,0.86
8559.00,0.86
8558.00,0.86
8557.00,0.86
8556.00,0.86
8555.00,0.86
8554.00,0.86
8553.00,0.85
8552.00,0.85
8551.00,0.85
8550.00,0.85
8549.00,0.85
8548.00,0.85
8547.00,0.85
8546.00,0.85
8545.00,0.85
8544.00,0.85
8543.00,0.85
8542.00,0.85
8541.00,0.85
8540.00,0.86
8539.00,0.86
8538.00,0.86
8537.00,0.86
8536.00,0.86
8535.00,0.86
8534.00,0.86
8533.00,0.86
8532.00,0.86
8531.00,0.86
8530.00,0.86
8529.00,0.86
8528.00,0.86
8527.00,0.86
8526.00,0.86
8525.00,0.86
8524.00,0.86
8523.00,0.86
8522.00,0.86
8521.00,0.86
8520.00,0.86
8519.00,0.86
8518.00,0.86
8517.00,0.86
8516.00,0.85
8515.00,0.85
8514.00,0.85
8513.00,0.85
8512.00,0.85
8511.00,0.84
8510.00,0.84
8509.00,0.84
8508.00,0.84
8507.00,0.84
8506.00,0.84
8505.00,0.84
8504.00,0.84
8503.00,0.83
8502.00,0.83
8501.00,0.83
8500.00,0.84
8499.00,0.84
8498.00,0.84
8497.00,0.84
8496.00,0.84
8495.00,0.84
8494.00,0.84
8493.00,0.84
8492.00,0.84
8491.00,0.84
8490.00,0.84
8489.00,0.84
8488.00,0.84
8487.00,0.84
8486.00,0.84
8485.00,0.84
8484.00,0.84
8483.00,0.84
8482.00,0.84
8481.00,0.84
8480.00,0.84
8479.00,0.83
8478.00,0.83
8477.00,0.83
8476.00,0.83
8475.00,0.83
8474.00,0.83
8473.00,0.83
8472.00,0.83
8471.00,0.83
8470.00,0.83
8469.00,0.83
8468.00,0.83
8467.00,0.83
8466.00,0.83
8465.00,0.83
8464.00,0.83
8463.00,0.83
8462.00,0.83
8461.00,0.83
8460.00,0.83
8459.00,0.83
8458.00,0.83
8457.00,0.83
8456.00,0.83
8455.00,0.84
8454.00,0.84
8453.00,0.84
8452.00,0.83
8451.00,0.83
8450.00,0.83
8449.00,0.83
8448.00,0.83
8447.00,0.83
8446.00,0.83
8445.00,0.83
8444.00,0.83
8443.00,0.83
8442.00,0.83
8441.00,0.83
8440.00,0.83
8439.00,0.83
8438.00,0.83
8437.00,0.83
8436.00,0.83
8435.00,0.83
8434.00,0.83
8433.00,0.83
8432.00,0.83
8431.00,0.83
8430.00,0.83
8429.00,0.83
8428.00,0.83
8427.00,0.83
8426.00,0.83
8425.00,0.83
8424.00,0.83
8423.00,0.83
8422.00,0.83
8421.00,0.83
8420.00,0.83
8419.00,0.83
8418.00,0.83
8417.00,0.83
8416.00,0.83
8415.00,0.83
8414.00,0.82
8413.00,0.82
8412.00,0.82
8411.00,0.82
8410.00,0.82
8409.00,0.82
8408.00,0.82
8407.00,0.83
8406.00,0.83
8405.00,0.83
8404.00,0.83
8403.00,0.83
8402.00,0.83
8401.00,0.83
8400.00,0.83
8399.00,0.84
8398.00,0.84
8397.00,0.84
8396.00,0.84
8395.00,0.84
8394.00,0.84
8393.00,0.85
8392.00,0.85
8391.00,0.85
8390.00,0.85
8389.00,0.85
8388.00,0.85
8387.00,0.86
8386.00,0.86
8385.00,0.86
8384.00,0.86
8383.00,0.86
8382.00,0.86
8381.00,0.86
8380.00,0.86
8379.00,0.86
8378.00,0.86
8377.00,0.86
8376.00,0.86
8375.00,0.86
8374.00,0.86
8373.00,0.86
8372.00,0.86
8371.00,0.86
8370.00,0.86
8369.00,0.85
8368.00,0.85
8367.00,0.85
8366.00,0.85
8365.00,0.85
8364.00,0.85
8363.00,0.85
8362.00,0.85
8361.00,0.85
8360.00,0.85
8359.00,0.85
8358.00,0.84
8357.00,0.84
8356.00,0.84
8355.00,0.84
8354.00,0.84
8353.00,0.84
8352.00,0.84
8351.00,0.84
8350.00,0.84
8349.00,0.84
8348.00,0.84
8347.00,0.84
8346.00,0.84
8345.00,0.84
8344.00,0.84
8343.00,0.85
8342.00,0.85
8341.00,0.85
8340.00,0.85
8339.00,0.85
8338.00,0.85
8337.00,0.85
8336.00,0.86
8335.00,0.86
8334.00,0.86
8333.00,0.86
8332.00,0.86
8331.00,0.86
8330.00,0.86
8329.00,0.86
8328.00,0.86
8327.00,0.87
8326.00,0.87
8325.00,0.87
8324.00,0.87
8323.00,0.87
8322.00,0.87
8321.00,0.87
8320.00,0.87
8319.00,0.87
8318.00,0.86
8317.00,0.86
8316.00,0.86
8315.00,0.86
8314.00,0.86
8313.00,0.86
8312.00,0.86
8311.00,0.86
8310.00,0.86
8309.00,0.86
8308.00,0.86
8307.00,0.86
8306.00,0.86
8305.00,0.86
8304.00,0.86
8303.00,0.86
8302.00,0.86
8301.00,0.86
8300.00,0.86
8299.00,0.86
8298.00,0.86
8297.00,0.86
8296.00,0.86
8295.00,0.86
8294.00,0.86
8293.00,0.86
8292.00,0.86
8291.00,0.86
8290.00,0.85
8289.00,0.85
8288.00,0.85
8287.00,0.85
8286.00,0.85
8285.00,0.85
8284.00,0.85
8283.00,0.85
8282.00,0.86
8281.00,0.86
8280.00,0.86
8279.00,0.86
8278.00,0.86
8277.00,0.86
8276.00,0.86
8275.00,0.86
8274.00,0.86
8273.00,0.86
8272.00,0.86
8271.00,0.86
8270.00,0.86
8269.00,0.86
8268.00,0.87
8267.00,0.87
8266.00,0.87
8265.00,0.87
8264.00,0.87
8263.00,0.87
8262.00,0.87
8261.00,0.87
8260.00,0.87
8259.00,0.87
8258.00,0.87
8257.00,0.87
8256.00,0.87
8255.00,0.87
8254.00,0.87
8253.00,0.87
8252.00,0.87
8251.00,0.87
8250.00,0.87
8249.00,0.87
8248.00,0.87
8247.00,0.87
8246.00,0.87
8245.00,0.87
8244.00,0.87
8243.00,0.87
8242.00,0.87
8241.00,0.87
8240.00,0.88
8239.00,0.88
8238.00,0.88
8237.00,0.88
8236.00,0.88
8235.00,0.88
8234.00,0.88
8233.00,0.88
8232.00,0.88
8231.00,0.88
8230.00,0.88
8229.00,0.87
8228.00,0.87
8227.00,0.87
8226.00,0.87
8225.00,0.87
8224.00,0.87
8223.00,0.87
8222.00,0.87
8221.00,0.87
8220.00,0.87
8219.00,0.87
8218.00,0.87
8217.00,0.87
8216.00,0.87
8215.00,0.87
8214.00,0.87
8213.00,0.87
8212.00,0.87
8211.00,0.87
8210.00,0.88
8209.00,0.88
8208.00,0.88
8207.00,0.88
8206.00,0.88
8205.00,0.88
8204.00,0.88
8203.00,0.88
8202.00,0.88
8201.00,0.88
8200.00,0.88
8199.00,0.88
8198.00,0.88
8197.00,0.88
8196.00,0.88
8195.00,0.88
8194.00,0.88
8193.00,0.88
8192.00,0.88
8191.00,0.88
8190.00,0.88
8189.00,0.88
8188.00,0.88
8187.00,0.88
8186.00,0.88
8185.00,0.88
8184.00,0.88
8183.00,0.88
8182.00,0.88
8181.00,0.88
8180.00,0.88
8179.00,0.88
8178.00,0.88
8177.00,0.88
8176.00,0.88
8175.00,0.89
8174.00,0.89
8173.00,0.89
8172.00,0.89
8171.00,0.89
8170.00,0.89
8169.00,0.89
8168.00,0.89
8167.00,0.89
8166.00,0.90
8165.00,0.90
8164.00,0.90
8163.00,0.90
8162.00,0.90
8161.00,0.90
8160.00,0.90
8159.00,0.90
8158.00,0.90
8157.00,0.90
8156.00,0.90
8155.00,0.90
8154.00,0.90
8153.00,0.90
8152.00,0.90
8151.00,0.90
8150.00,0.90
8149.00,0.90
8148.00,0.90
8147.00,0.90
8146.00,0.90
8145.00,0.90
8144.00,0.90
8143.00,0.90
8142.00,0.90
8141.00,0.89
8140.00,0.89
8139.00,0.89
8138.00,0.89
8137.00,0.89
8136.00,0.89
8135.00,0.89
8134.00,0.89
8133.00,0.89
8132.00,0.89
8131.00,0.89
8130.00,0.89
8129.00,0.89
8128.00,0.89
8127.00,0.89
8126.00,0.89
8125.00,0.89
8124.00,0.90
8123.00,0.90
8122.00,0.90
8121.00,0.90
8120.00,0.90
8119.00,0.90
8118.00,0.90
8117.00,0.90
8116.00,0.90
8115.00,0.90
8114.00,0.90
8113.00,0.90
8112.00,0.90
8111.00,0.90
8110.00,0.90
8109.00,0.90
8108.00,0.89
8107.00,0.89
8106.00,0.89
8105.00,0.89
8104.00,0.89
8103.00,0.89
8102.00,0.89
8101.00,0.89
8100.00,0.89
8099.00,0.89
8098.00,0.89
8097.00,0.89
8096.00,0.89
8095.00,0.89
8094.00,0.89
8093.00,0.89
8092.00,0.89
8091.00,0.89
8090.00,0.90
8089.00,0.90
8088.00,0.90
8087.00,0.90
8086.00,0.90
8085.00,0.90
8084.00,0.90
8083.00,0.90
8082.00,0.90
8081.00,0.91
8080.00,0.91
8079.00,0.91
8078.00,0.91
8077.00,0.91
8076.00,0.91
8075.00,0.91
8074.00,0.91
8073.00,0.91
8072.00,0.91
8071.00,0.91
8070.00,0.91
8069.00,0.91
8068.00,0.91
8067.00,0.91
8066.00,0.91
8065.00,0.91
8064.00,0.91
8063.00,0.91
8062.00,0.91
8061.00,0.91
8060.00,0.91
8059.00,0.91
8058.00,0.91
8057.00,0.91
8056.00,0.91
8055.00,0.91
8054.00,0.91
8053.00,0.91
8052.00,0.91
8051.00,0.91
8050.00,0.91
8049.00,0.91
8048.00,0.91
8047.00,0.91
8046.00,0.91
8045.00,0.91
8044.00,0.91
8043.00,0.91
8042.00,0.91
8041.00,0.92
8040.00,0.92
8039.00,0.92
8038.00,0.92
8037.00,0.92
8036.00,0.92
8035.00,0.92
8034.00,0.92
8033.00,0.92
8032.00,0.92
8031.00,0.92
8030.00,0.92
8029.00,0.92
8028.00,0.92
8027.00,0.92
8026.00,0.92
8025.00,0.92
8024.00,0.92
8023.00,0.92
8022.00,0.92
8021.00,0.92
8020.00,0.92
8019.00,0.92
8018.00,0.92
8017.00,0.92
8016.00,0.92
8015.00,0.92
8014.00,0.91
8013.00,0.91
8012.00,0.91
8011.00,0.92
8010.00,0.92
8009.00,0.92
8008.00,0.92
8007.00,0.92
8006.00,0.92
8005.00,0.92
8004.00,0.92
8003.00,0.92
8002.00,0.92
8001.00,0.92
8000.00,0.92
7999.00,0.92
7998.00,0.92
7997.00,0.92
7996.00,0.92
7995.00,0.92
7994.00,0.92
7993.00,0.92
7992.00,0.92
7991.00,0.92
7990.00,0.92
7989.00,0.92
7988.00,0.92
7987.00,0.92
7986.00,0.92
7985.00,0.92
7984.00,0.92
7983.00,0.92
7982.00,0.92
7981.00,0.92
7980.00,0.92
7979.00,0.92
7978.00,0.92
7977.00,0.92
7976.00,0.92
7975.00,0.92
7974.00,0.92
7973.00,0.92
7972.00,0.92
7971.00,0.92
7970.00,0.92
7969.00,0.92
7968.00,0.92
7967.00,0.92
7966.00,0.92
7965.00,0.92
7964.00,0.92
7963.00,0.92
7962.00,0.92
7961.00,0.92
7960.00,0.92
7959.00,0.92
7958.00,0.92
7957.00,0.92
7956.00,0.92
7955.00,0.92
7954.00,0.92
7953.00,0.92
7952.00,0.92
7951.00,0.92
7950.00,0.93
7949.00,0.93
7948.00,0.93
7947.00,0.93
7946.00,0.93
7945.00,0.93
7944.00,0.93
7943.00,0.93
7942.00,0.93
7941.00,0.93
7940.00,0.93
7939.00,0.93
7938.00,0.93
7937.00,0.93
7936.00,0.93
7935.00,0.93
7934.00,0.93
7933.00,0.93
7932.00,0.92
7931.00,0.92
7930.00,0.92
7929.00,0.92
7928.00,0.92
7927.00,0.92
7926.00,0.92
7925.00,0.92
7924.00,0.92
7923.00,0.92
7922.00,0.92
7921.00,0.92
7920.00,0.92
7919.00,0.92
7918.00,0.92
7917.00,0.93
7916.00,0.93
7915.00,0.93
7914.00,0.93
7913.00,0.93
7912.00,0.93
7911.00,0.93
7910.00,0.93
7909.00,0.93
7908.00,0.93
7907.00,0.93
7906.00,0.93
7905.00,0.93
7904.00,0.93
7903.00,0.93
7902.00,0.93
7901.00,0.93
7900.00,0.93
7899.00,0.93
7898.00,0.93
7897.00,0.93
7896.00,0.93
7895.00,0.93
7894.00,0.93
7893.00,0.93
7892.00,0.93
7891.00,0.93
7890.00,0.93
7889.00,0.93
7888.00,0.93
7887.00,0.93
7886.00,0.93
7885.00,0.93
7884.00,0.93
7883.00,0.93
7882.00,0.93
7881.00,0.93
7880.00,0.93
7879.00,0.93
7878.00,0.93
7877.00,0.93
7876.00,0.93
7875.00,0.93
7874.00,0.93
7873.00,0.93
7872.00,0.93
7871.00,0.93
7870.00,0.93
7869.00,0.93
7868.00,0.93
7867.00,0.93
7866.00,0.93
7865.00,0.93
7864.00,0.93
7863.00,0.93
7862.00,0.93
7861.00,0.93
7860.00,0.93
7859.00,0.93
7858.00,0.93
7857.00,0.93
7856.00,0.93
7855.00,0.93
7854.00,0.94
7853.00,0.94
7852.00,0.94
7851.00,0.94
7850.00,0.94
7849.00,0.94
7848.00,0.94
7847.00,0.94
7846.00,0.94
7845.00,0.94
7844.00,0.94
7843.00,0.94
7842.00,0.95
7841.00,0.95
7840.00,0.95
7839.00,0.95
7838.00,0.95
7837.00,0.95
7836.00,0.95
7835.00,0.95
7834.00,0.95
7833.00,0.95
7832.00,0.95
7831.00,0.94
7830.00,0.94
7829.00,0.94
7828.00,0.94
7827.00,0.94
7826.00,0.94
7825.00,0.94
7824.00,0.94
7823.00,0.94
7822.00,0.94
7821.00,0.94
7820.00,0.94
7819.00,0.94
7818.00,0.94
7817.00,0.94
7816.00,0.94
7815.00,0.94
7814.00,0.94
7813.00,0.94
7812.00,0.94
7811.00,0.95
7810.00,0.95
7809.00,0.95
7808.00,0.95
7807.00,0.95
7806.00,0.95
7805.00,0.95
7804.00,0.95
7803.00,0.95
7802.00,0.95
7801.00,0.95
7800.00,0.95
7799.00,0.95
7798.00,0.95
7797.00,0.95
7796.00,0.95
7795.00,0.95
7794.00,0.95
7793.00,0.95
7792.00,0.95
7791.00,0.95
7790.00,0.95
7789.00,0.95
7788.00,0.95
7787.00,0.95
7786.00,0.95
7785.00,0.94
7784.00,0.94
7783.00,0.94
7782.00,0.94
7781.00,0.94
7780.00,0.94
7779.00,0.94
7778.00,0.94
7777.00,0.94
7776.00,0.94
7775.00,0.94
7774.00,0.94
7773.00,0.94
7772.00,0.94
7771.00,0.95
7770.00,0.95
7769.00,0.95
7768.00,0.95
7767.00,0.95
7766.00,0.95
7765.00,0.95
7764.00,0.95
7763.00,0.95
7762.00,0.95
7761.00,0.95
7760.00,0.95
7759.00,0.95
7758.00,0.95
7757.00,0.95
7756.00,0.95
7755.00,0.95
7754.00,0.94
7753.00,0.94
7752.00,0.94
7751.00,0.94
7750.00,0.94
7749.00,0.94
7748.00,0.94
7747.00,0.94
7746.00,0.94
7745.00,0.94
7744.00,0.95
7743.00,0.95
7742.00,0.95
7741.00,0.95
7740.00,0.95
7739.00,0.95
7738.00,0.95
7737.00,0.95
7736.00,0.95
7735.00,0.95
7734.00,0.95
7733.00,0.95
7732.00,0.95
7731.00,0.95
7730.00,0.95
7729.00,0.95
7728.00,0.95
7727.00,0.95
7726.00,0.95
7725.00,0.95
7724.00,0.95
7723.00,0.95
7722.00,0.95
7721.00,0.95
7720.00,0.95
7719.00,0.95
7718.00,0.95
7717.00,0.95
7716.00,0.95
7715.00,0.95
7714.00,0.95
7713.00,0.95
7712.00,0.95
7711.00,0.95
7710.00,0.95
7709.00,0.95
7708.00,0.95
7707.00,0.95
7706.00,0.95
7705.00,0.95
7704.00,0.95
7703.00,0.95
7702.00,0.95
7701.00,0.95
7700.00,0.95
7699.00,0.95
7698.00,0.95
7697.00,0.95
7696.00,0.95
7695.00,0.95
7694.00,0.95
7693.00,0.95
7692.00,0.95
7691.00,0.95
7690.00,0.95
7689.00,0.95
7688.00,0.95
7687.00,0.95
7686.00,0.95
7685.00,0.95
7684.00,0.95
7683.00,0.95
7682.00,0.95
7681.00,0.95
7680.00,0.95
7679.00,0.95
7678.00,0.95
7677.00,0.95
7676.00,0.95
7675.00,0.95
7674.00,0.95
7673.00,0.95
7672.00,0.95
7671.00,0.95
7670.00,0.95
7669.00,0.95
7668.00,0.95
7667.00,0.95
7666.00,0.95
7665.00,0.95
7664.00,0.95
7663.00,0.95
7662.00,0.95
7661.00,0.95
7660.00,0.95
7659.00,0.95
7658.00,0.95
7657.00,0.95
7656.00,0.95
7655.00,0.95
7654.00,0.95
7653.00,0.95
7652.00,0.95
7651.00,0.95
7650.00,0.95
7649.00,0.95
7648.00,0.95
7647.00,0.95
7646.00,0.95
7645.00,0.95
7644.00,0.95
7643.00,0.95
7642.00,0.95
7641.00,0.95
7640.00,0.95
7639.00,0.95
7638.00,0.95
7637.00,0.95
7636.00,0.95
7635.00,0.95
7634.00,0.95
7633.00,0.95
7632.00,0.95
7631.00,0.95
7630.00,0.95
7629.00,0.95
7628.00,0.95
7627.00,0.95
7626.00,0.95
7625.00,0.95
7624.00,0.95
7623.00,0.95
7622.00,0.95
7621.00,0.95
7620.00,0.95
7619.00,0.95
7618.00,0.95
7617.00,0.95
7616.00,0.94
7615.00,0.94
7614.00,0.94
7613.00,0.94
7612.00,0.94
7611.00,0.94
7610.00,0.94
7609.00,0.94
7608.00,0.94
7607.00,0.94
7606.00,0.94
7605.00,0.94
7604.00,0.94
7603.00,0.94
7602.00,0.94
7601.00,0.94
7600.00,0.94
7599.00,0.94
7598.00,0.94
7597.00,0.94
7596.00,0.94
7595.00,0.94
7594.00,0.94
7593.00,0.95
7592.00,0.95
7591.00,0.95
7590.00,0.95
7589.00,0.95
7588.00,0.95
7587.00,0.95
7586.00,0.95
7585.00,0.95
7584.00,0.95
7583.00,0.95
7582.00,0.95
7581.00,0.95
7580.00,0.95
7579.00,0.95
7578.00,0.95
7577.00,0.94
7576.00,0.94
7575.00,0.94
7574.00,0.94
7573.00,0.94
7572.00,0.94
7571.00,0.94
7570.00,0.94
7569.00,0.94
7568.00,0.94
7567.00,0.94
7566.00,0.94
7565.00,0.94
7564.00,0.94
7563.00,0.94
7562.00,0.94
7561.00,0.94
7560.00,0.94
7559.00,0.94
7558.00,0.94
7557.00,0.94
7556.00,0.94
7555.00,0.94
7554.00,0.94
7553.00,0.94
7552.00,0.94
7551.00,0.94
7550.00,0.95
7549.00,0.95
7548.00,0.95
7547.00,0.95
7546.00,0.95
7545.00,0.95
7544.00,0.95
7543.00,0.94
7542.00,0.94
7541.00,0.94
7540.00,0.94
7539.00,0.94
7538.00,0.94
7537.00,0.94
7536.00,0.94
7535.00,0.94
7534.00,0.94
7533.00,0.94
7532.00,0.94
7531.00,0.94
7530.00,0.94
7529.00,0.93
7528.00,0.93
7527.00,0.93
7526.00,0.93
7525.00,0.93
7524.00,0.93
7523.00,0.93
7522.00,0.93
7521.00,0.93
7520.00,0.93
7519.00,0.93
7518.00,0.93
7517.00,0.93
7516.00,0.93
7515.00,0.93
7514.00,0.93
7513.00,0.93
7512.00,0.93
7511.00,0.93
7510.00,0.93
7509.00,0.93
7508.00,0.93
7507.00,0.93
7506.00,0.93
7505.00,0.93
7504.00,0.93
7503.00,0.93
7502.00,0.93
7501.00,0.93
7500.00,0.93
7499.00,0.93
7498.00,0.93
7497.00,0.93
7496.00,0.93
7495.00,0.93
7494.00,0.93
7493.00,0.93
7492.00,0.93
7491.00,0.93
7490.00,0.93
7489.00,0.93
7488.00,0.92
7487.00,0.92
7486.00,0.92
7485.00,0.92
7484.00,0.92
7483.00,0.92
7482.00,0.92
7481.00,0.92
7480.00,0.92
7479.00,0.92
7478.00,0.92
7477.00,0.92
7476.00,0.92
7475.00,0.92
7474.00,0.92
7473.00,0.92
7472.00,0.92
7471.00,0.91
7470.00,0.91
7469.00,0.92
7468.00,0.92
7467.00,0.92
7466.00,0.92
7465.00,0.92
7464.00,0.92
7463.00,0.92
7462.00,0.92
7461.00,0.92
7460.00,0.92
7459.00,0.92
7458.00,0.92
7457.00,0.91
7456.00,0.91
7455.00,0.91
7454.00,0.91
7453.00,0.91
7452.00,0.91
7451.00,0.91
7450.00,0.91
7449.00,0.91
7448.00,0.91
7447.00,0.91
7446.00,0.91
7445.00,0.91
7444.00,0.91
7443.00,0.91
7442.00,0.91
7441.00,0.91
7440.00,0.91
7439.00,0.91
7438.00,0.91
7437.00,0.91
7436.00,0.91
7435.00,0.91
7434.00,0.91
7433.00,0.91
7432.00,0.91
7431.00,0.91
7430.00,0.91
7429.00,0.91
7428.00,0.91
7427.00,0.91
7426.00,0.91
7425.00,0.91
7424.00,0.91
7423.00,0.90
7422.00,0.90
7421.00,0.90
7420.00,0.90
7419.00,0.90
7418.00,0.90
7417.00,0.90
7416.00,0.90
7415.00,0.90
7414.00,0.89
7413.00,0.89
7412.00,0.89
7411.00,0.89
7410.00,0.89
7409.00,0.89
7408.00,0.89
7407.00,0.89
7406.00,0.89
7405.00,0.89
7404.00,0.89
7403.00,0.89
7402.00,0.89
7401.00,0.89
7400.00,0.89
7399.00,0.89
7398.00,0.89
7397.00,0.89
7396.00,0.89
7395.00,0.89
7394.00,0.88
7393.00,0.88
7392.00,0.88
7391.00,0.88
7390.00,0.88
7389.00,0.88
7388.00,0.88
7387.00,0.88
7386.00,0.88
7385.00,0.88
7384.00,0.88
7383.00,0.87
7382.00,0.87
7381.00,0.87
7380.00,0.87
7379.00,0.87
7378.00,0.87
7377.00,0.87
7376.00,0.87
7375.00,0.87
7374.00,0.87
7373.00,0.87
7372.00,0.87
7371.00,0.87
7370.00,0.87
7369.00,0.87
7368.00,0.87
7367.00,0.87
7366.00,0.87
7365.00,0.87
7364.00,0.87
7363.00,0.87
7362.00,0.87
7361.00,0.87
7360.00,0.87
7359.00,0.87
7358.00,0.87
7357.00,0.87
7356.00,0.87
7355.00,0.87
7354.00,0.87
7353.00,0.87
7352.00,0.87
7351.00,0.87
7350.00,0.87
7349.00,0.87
7348.00,0.87
7347.00,0.87
7346.00,0.87
7345.00,0.87
7344.00,0.86
7343.00,0.86
7342.00,0.86
7341.00,0.86
7340.00,0.86
7339.00,0.86
7338.00,0.86
7337.00,0.86
7336.00,0.86
7335.00,0.86
7334.00,0.86
7333.00,0.85
7332.00,0.85
7331.00,0.85
7330.00,0.85
7329.00,0.85
7328.00,0.85
7327.00,0.85
7326.00,0.85
7325.00,0.86
7324.00,0.86
7323.00,0.86
7322.00,0.86
7321.00,0.86
7320.00,0.86
7319.00,0.86
7318.00,0.86
7317.00,0.86
7316.00,0.86
7315.00,0.86
7314.00,0.86
7313.00,0.86
7312.00,0.86
7311.00,0.86
7310.00,0.86
7309.00,0.86
7308.00,0.86
7307.00,0.86
7306.00,0.86
7305.00,0.86
7304.00,0.85
7303.00,0.85
7302.00,0.85
7301.00,0.85
7300.00,0.85
7299.00,0.85
7298.00,0.84
7297.00,0.84
7296.00,0.84
7295.00,0.84
7294.00,0.84
7293.00,0.84
7292.00,0.83
7291.00,0.83
7290.00,0.83
7289.00,0.83
7288.00,0.83
7287.00,0.83
7286.00,0.83
7285.00,0.83
7284.00,0.82
7283.00,0.82
7282.00,0.82
7281.00,0.82
7280.00,0.82
7279.00,0.82
7278.00,0.82
7277.00,0.82
7276.00,0.82
7275.00,0.82
7274.00,0.82
7273.00,0.82
7272.00,0.82
7271.00,0.82
7270.00,0.82
7269.00,0.82
7268.00,0.81
7267.00,0.81
7266.00,0.81
7265.00,0.81
7264.00,0.81
7263.00,0.81
7262.00,0.81
7261.00,0.81
7260.00,0.81
7259.00,0.81
7258.00,0.81
7257.00,0.80
7256.00,0.80
7255.00,0.80
7254.00,0.80
7253.00,0.80
7252.00,0.80
7251.00,0.80
7250.00,0.80
7249.00,0.79
7248.00,0.79
7247.00,0.79
7246.00,0.79
7245.00,0.79
7244.00,0.79
7243.00,0.78
7242.00,0.78
7241.00,0.78
7240.00,0.78
7239.00,0.78
7238.00,0.77
7237.00,0.77
7236.00,0.77
7235.00,0.77
7234.00,0.77
7233.00,0.76
7232.00,0.76
7231.00,0.76
7230.00,0.76
7229.00,0.76
7228.00,0.75
7227.00,0.75
7226.00,0.75
7225.00,0.75
7224.00,0.75
7223.00,0.75
7222.00,0.75
7221.00,0.74
7220.00,0.74
7219.00,0.74
7218.00,0.74
7217.00,0.74
7216.00,0.74
7215.00,0.73
7214.00,0.73
7213.00,0.73
7212.00,0.73
7211.00,0.73
7210.00,0.73
7209.00,0.72
7208.00,0.72
7207.00,0.72
7206.00,0.72
7205.00,0.71
7204.00,0.71
7203.00,0.71
7202.00,0.71
7201.00,0.71
7200.00,0.70
7199.00,0.70
7198.00,0.70
7197.00,0.70
7196.00,0.69
7195.00,0.69
7194.00,0.69
7193.00,0.69
7192.00,0.69
7191.00,0.68
7190.00,0.68
7189.00,0.68
7188.00,0.68
7187.00,0.68
7186.00,0.67
7185.00,0.67
7184.00,0.67
7183.00,0.67
7182.00,0.67
7181.00,0.66
7180.00,0.66
7179.00,0.66
7178.00,0.66
7177.00,0.66
7176.00,0.65
7175.00,0.65
7174.00,0.65
7173.00,0.65
7172.00,0.65
7171.00,0.65
7170.00,0.64
7169.00,0.64
7168.00,0.64
7167.00,0.64
7166.00,0.64
7165.00,0.63
7164.00,0.63
7163.00,0.63
7162.00,0.63
7161.00,0.63
7160.00,0.62
7159.00,0.62
7158.00,0.62
7157.00,0.62
7156.00,0.62
7155.00,0.61
7154.00,0.61
7153.00,0.61
7152.00,0.61
7151.00,0.61
7150.00,0.60
7149.00,0.60
7148.00,0.60
7147.00,0.60
7146.00,0.60
7145.00,0.60
7144.00,0.59
7143.00,0.59
7142.00,0.59
7141.00,0.59
7140.00,0.59
7139.00,0.58
7138.00,0.58
7137.00,0.58
7136.00,0.58
7135.00,0.58
7134.00,0.58
7133.00,0.58
7132.00,0.57
7131.00,0.57
7130.00,0.57
7129.00,0.57
7128.00,0.57
7127.00,0.57
7126.00,0.56
7125.00,0.56
7124.00,0.56
7123.00,0.56
7122.00,0.56
7121.00,0.55
7120.00,0.55
7119.00,0.55
7118.00,0.55
7117.00,0.55
7116.00,0.54
7115.00,0.54
7114.00,0.54
7113.00,0.54
7112.00,0.54
7111.00,0.54
7110.00,0.53
7109.00,0.53
7108.00,0.53
7107.00,0.53
7106.00,0.53
7105.00,0.53
7104.00,0.52
7103.00,0.52
7102.00,0.52
7101.00,0.52
7100.00,0.52
7099.00,0.52
7098.00,0.52
7097.00,0.52
7096.00,0.51
7095.00,0.51
7094.00,0.51
7093.00,0.51
7092.00,0.51
7091.00,0.51
7090.00,0.51
7089.00,0.51
7088.00,0.51
7087.00,0.51
7086.00,0.50
7085.00,0.50
7084.00,0.50
7083.00,0.50
7082.00,0.50
7081.00,0.50
7080.00,0.50
7079.00,0.50
7078.00,0.50
7077.00,0.49
7076.00,0.49
7075.00,0.49
7074.00,0.49
7073.00,0.49
7072.00,0.49
7071.00,0.49
7070.00,0.49
7069.00,0.49
7068.00,0.49
7067.00,0.49
7066.00,0.49
7065.00,0.49
7064.00,0.49
7063.00,0.48
7062.00,0.48
7061.00,0.48
7060.00,0.48
7059.00,0.48
7058.00,0.48
7057.00,0.48
7056.00,0.48
7055.00,0.48
7054.00,0.48
7053.00,0.48
7052.00,0.47
7051.00,0.47
7050.00,0.47
7049.00,0.47
7048.00,0.47
7047.00,0.47
7046.00,0.47
7045.00,0.47
7044.00,0.47
7043.00,0.47
7042.00,0.47
7041.00,0.47
7040.00,0.47
7039.00,0.47
7038.00,0.47
7037.00,0.47
7036.00,0.47
7035.00,0.47
7034.00,0.47
7033.00,0.46
7032.00,0.46
7031.00,0.46
7030.00,0.46
7029.00,0.46
7028.00,0.46
7027.00,0.46
7026.00,0.46
7025.00,0.46
7024.00,0.45
7023.00,0.45
7022.00,0.45
7021.00,0.45
7020.00,0.45
7019.00,0.45
7018.00,0.45
7017.00,0.45
7016.00,0.45
7015.00,0.45
7014.00,0.45
7013.00,0.45
7012.00,0.44
7011.00,0.44
7010.00,0.44
7009.00,0.44
7008.00,0.44
7007.00,0.44
7006.00,0.44
7005.00,0.44
7004.00,0.44
7003.00,0.44
7002.00,0.44
7001.00,0.44
7000.00,0.44
6999.00,0.44
6998.00,0.44
6997.00,0.44
6996.00,0.44
6995.00,0.44
6994.00,0.44
6993.00,0.44
6992.00,0.44
6991.00,0.44
6990.00,0.44
6989.00,0.44
6988.00,0.44
6987.00,0.44
6986.00,0.44
6985.00,0.44
6984.00,0.43
6983.00,0.43
6982.00,0.43
6981.00,0.43
6980.00,0.43
6979.00,0.43
6978.00,0.43
6977.00,0.43
6976.00,0.43
6975.00,0.43
6974.00,0.43
6973.00,0.42
6972.00,0.42
6971.00,0.42
6970.00,0.42
6969.00,0.42
6968.00,0.42
6967.00,0.42
6966.00,0.42
6965.00,0.42
6964.00,0.42
6963.00,0.42
6962.00,0.42
6961.00,0.42
6960.00,0.42
6959.00,0.42
6958.00,0.42
6957.00,0.42
6956.00,0.42
6955.00,0.42
6954.00,0.42
6953.00,0.42
6952.00,0.42
6951.00,0.42
6950.00,0.42
6949.00,0.42
6948.00,0.42
6947.00,0.42
6946.00,0.42
6945.00,0.42
6944.00,0.42
6943.00,0.42
6942.00,0.42
6941.00,0.42
6940.00,0.42
6939.00,0.42
6938.00,0.42
6937.00,0.42
6936.00,0.41
6935.00,0.41
6934.00,0.41
6933.00,0.41
6932.00,0.41
6931.00,0.41
6930.00,0.41
6929.00,0.41
6928.00,0.41
6927.00,0.41
6926.00,0.41
6925.00,0.41
6924.00,0.41
6923.00,0.41
6922.00,0.41
6921.00,0.41
6920.00,0.42
6919.00,0.42
6918.00,0.42
6917.00,0.42
6916.00,0.42
6915.00,0.42
6914.00,0.42
6913.00,0.42
6912.00,0.42
6911.00,0.42
6910.00,0.42
6909.00,0.42
6908.00,0.42
6907.00,0.42
6906.00,0.42
6905.00,0.42
6904.00,0.42
6903.00,0.42
6902.00,0.42
6901.00,0.42
6900.00,0.42
6899.00,0.42
6898.00,0.42
6897.00,0.42
6896.00,0.42
6895.00,0.42
6894.00,0.42
6893.00,0.42
6892.00,0.42
6891.00,0.42
6890.00,0.42
6889.00,0.42
6888.00,0.42
6887.00,0.42
6886.00,0.42
6885.00,0.42
6884.00,0.42
6883.00,0.42
6882.00,0.42
6881.00,0.42
6880.00,0.42
6879.00,0.42
6878.00,0.42
6877.00,0.42
6876.00,0.42
6875.00,0.42
6874.00,0.42
6873.00,0.42
6872.00,0.42
6871.00,0.42
6870.00,0.42
6869.00,0.42
6868.00,0.42
6867.00,0.42
6866.00,0.42
6865.00,0.42
6864.00,0.42
6863.00,0.42
6862.00,0.42
6861.00,0.42
6860.00,0.42
6859.00,0.42
6858.00,0.42
6857.00,0.42
6856.00,0.42
6855.00,0.42
6854.00,0.42
6853.00,0.42
6852.00,0.42
6851.00,0.42
6850.00,0.42
6849.00,0.42
6848.00,0.42
6847.00,0.42
6846.00,0.42
6845.00,0.42
6844.00,0.42
6843.00,0.42
6842.00,0.42
6841.00,0.42
6840.00,0.42
6839.00,0.42
6838.00,0.42
6837.00,0.42
6836.00,0.42
6835.00,0.42
6834.00,0.42
6833.00,0.42
6832.00,0.42
6831.00,0.42
6830.00,0.42
6829.00,0.42
6828.00,0.42
6827.00,0.42
6826.00,0.42
6825.00,0.42
6824.00,0.42
6823.00,0.42
6822.00,0.42
6821.00,0.42
6820.00,0.42
6819.00,0.42
6818.00,0.42
6817.00,0.42
6816.00,0.42
6815.00,0.42
6814.00,0.42
6813.00,0.42
6812.00,0.42
6811.00,0.42
6810.00,0.42
6809.00,0.42
6808.00,0.42
6807.00,0.42
6806.00,0.42
6805.00,0.42
6804.00,0.42
6803.00,0.42
6802.00,0.42
6801.00,0.42
6800.00,0.42
6799.00,0.42
6798.00,0.42
6797.00,0.42
6796.00,0.42
6795.00,0.42
6794.00,0.42
6793.00,0.42
6792.00,0.42
6791.00,0.42
6790.00,0.42
6789.00,0.42
6788.00,0.42
6787.00,0.42
6786.00,0.42
6785.00,0.42
6784.00,0.42
6783.00,0.42
6782.00,0.42
6781.00,0.43
6780.00,0.43
6779.00,0.43
6778.00,0.43
6777.00,0.43
6776.00,0.43
6775.00,0.43
6774.00,0.43
6773.00,0.43
6772.00,0.43
6771.00,0.43
6770.00,0.43
6769.00,0.43
6768.00,0.43
6767.00,0.43
6766.00,0.43
6765.00,0.43
6764.00,0.43
6763.00,0.43
6762.00,0.43
6761.00,0.43
6760.00,0.43
6759.00,0.44
6758.00,0.44
6757.00,0.44
6756.00,0.44
6755.00,0.44
6754.00,0.44
6753.00,0.44
6752.00,0.44
6751.00,0.44
6750.00,0.44
6749.00,0.44
6748.00,0.44
6747.00,0.44
6746.00,0.44
6745.00,0.44
6744.00,0.44
6743.00,0.44
6742.00,0.44
6741.00,0.44
6740.00,0.44
6739.00,0.44
6738.00,0.44
6737.00,0.44
6736.00,0.44
6735.00,0.44
6734.00,0.44
6733.00,0.45
6732.00,0.45
6731.00,0.45
6730.00,0.45
6729.00,0.45
6728.00,0.45
6727.00,0.45
6726.00,0.45
6725.00,0.45
6724.00,0.45
6723.00,0.45
6722.00,0.45
6721.00,0.45
6720.00,0.45
6719.00,0.46
6718.00,0.46
6717.00,0.46
6716.00,0.46
6715.00,0.46
6714.00,0.46
6713.00,0.46
6712.00,0.46
6711.00,0.46
6710.00,0.46
6709.00,0.46
6708.00,0.46
6707.00,0.46
6706.00,0.46
6705.00,0.46
6704.00,0.46
6703.00,0.46
6702.00,0.46
6701.00,0.46
6700.00,0.46
6699.00,0.46
6698.00,0.46
6697.00,0.46
6696.00,0.46
6695.00,0.46
6694.00,0.47
6693.00,0.47
6692.00,0.47
6691.00,0.47
6690.00,0.47
6689.00,0.47
6688.00,0.47
6687.00,0.47
6686.00,0.47
6685.00,0.47
6684.00,0.47
6683.00,0.47
6682.00,0.47
6681.00,0.47
6680.00,0.47
6679.00,0.47
6678.00,0.47
6677.00,0.47
6676.00,0.47
6675.00,0.47
6674.00,0.47
6673.00,0.47
6672.00,0.47
6671.00,0.47
6670.00,0.47
6669.00,0.47
6668.00,0.47
6667.00,0.47
6666.00,0.47
6665.00,0.47
6664.00,0.47
6663.00,0.47
6662.00,0.47
6661.00,0.47
6660.00,0.47
6659.00,0.47
6658.00,0.48
6657.00,0.48
6656.00,0.48
6655.00,0.48
6654.00,0.48
6653.00,0.48
6652.00,0.48
6651.00,0.48
6650.00,0.49
6649.00,0.49
6648.00,0.49
6647.00,0.49
6646.00,0.49
6645.00,0.49
6644.00,0.49
6643.00,0.50
6642.00,0.50
6641.00,0.50
6640.00,0.50
6639.00,0.50
6638.00,0.50
6637.00,0.50
6636.00,0.50
6635.00,0.50
6634.00,0.51
6633.00,0.51
6632.00,0.51
6631.00,0.51
6630.00,0.51
6629.00,0.51
6628.00,0.51
6627.00,0.51
6626.00,0.51
6625.00,0.51
6624.00,0.51
6623.00,0.51
6622.00,0.51
6621.00,0.51
6620.00,0.51
6619.00,0.51
6618.00,0.51
6617.00,0.51
6616.00,0.51
6615.00,0.51
6614.00,0.51
6613.00,0.51
6612.00,0.51
6611.00,0.51
6610.00,0.51
6609.00,0.51
6608.00,0.51
6607.00,0.51
6606.00,0.51
6605.00,0.51
6604.00,0.51
6603.00,0.51
6602.00,0.51
6601.00,0.51
6600.00,0.51
6599.00,0.51
6598.00,0.51
6597.00,0.52
6596.00,0.52
6595.00,0.52
6594.00,0.52
6593.00,0.52
6592.00,0.52
6591.00,0.52
6590.00,0.52
6589.00,0.52
6588.00,0.52
6587.00,0.52
6586.00,0.53
6585.00,0.53
6584.00,0.53
6583.00,0.53
6582.00,0.53
6581.00,0.53
6580.00,0.53
6579.00,0.53
6578.00,0.53
6577.00,0.53
6576.00,0.53
6575.00,0.53
6574.00,0.53
6573.00,0.53
6572.00,0.53
6571.00,0.53
6570.00,0.53
6569.00,0.53
6568.00,0.53
6567.00,0.53
6566.00,0.54
6565.00,0.54
6564.00,0.54
6563.00,0.54
6562.00,0.54
6561.00,0.54
6560.00,0.54
6559.00,0.54
6558.00,0.54
6557.00,0.55
6556.00,0.55
6555.00,0.55
6554.00,0.55
6553.00,0.55
6552.00,0.55
6551.00,0.55
6550.00,0.55
6549.00,0.55
6548.00,0.55
6547.00,0.55
6546.00,0.55
6545.00,0.55
6544.00,0.55
6543.00,0.55
6542.00,0.55
6541.00,0.55
6540.00,0.55
6539.00,0.55
6538.00,0.55
6537.00,0.55
6536.00,0.55
6535.00,0.55
6534.00,0.55
6533.00,0.55
6532.00,0.55
6531.00,0.55
6530.00,0.55
6529.00,0.55
6528.00,0.55
6527.00,0.56
6526.00,0.56
6525.00,0.56
6524.00,0.56
6523.00,0.56
6522.00,0.56
6521.00,0.56
6520.00,0.56
6519.00,0.56
6518.00,0.56
6517.00,0.56
6516.00,0.56
6515.00,0.56
6514.00,0.56
6513.00,0.56
6512.00,0.56
6511.00,0.57
6510.00,0.57
6509.00,0.57
6508.00,0.57
6507.00,0.57
6506.00,0.57
6505.00,0.57
6504.00,0.57
6503.00,0.57
6502.00,0.57
6501.00,0.57
6500.00,0.57
6499.00,0.57
6498.00,0.57
6497.00,0.57
6496.00,0.57
6495.00,0.57
6494.00,0.57
6493.00,0.57
6492.00,0.57
6491.00,0.57
6490.00,0.57
6489.00,0.57
6488.00,0.58
6487.00,0.58
6486.00,0.58
6485.00,0.58
6484.00,0.58
6483.00,0.58
6482.00,0.58
6481.00,0.58
6480.00,0.58
6479.00,0.58
6478.00,0.58
6477.00,0.58
6476.00,0.58
6475.00,0.58
6474.00,0.58
6473.00,0.58
6472.00,0.58
6471.00,0.58
6470.00,0.58
6469.00,0.58
6468.00,0.58
6467.00,0.58
6466.00,0.58
6465.00,0.58
6464.00,0.58
6463.00,0.58
6462.00,0.58
6461.00,0.58
6460.00,0.58
6459.00,0.58
6458.00,0.58
6457.00,0.58
6456.00,0.58
6455.00,0.58
6454.00,0.58
6453.00,0.58
6452.00,0.58
6451.00,0.58
6450.00,0.58
6449.00,0.58
6448.00,0.58
6447.00,0.58
6446.00,0.58
6445.00,0.58
6444.00,0.58
6443.00,0.59
6442.00,0.59
6441.00,0.59
6440.00,0.59
6439.00,0.59
6438.00,0.59
6437.00,0.59
6436.00,0.59
6435.00,0.59
6434.00,0.59
6433.00,0.59
6432.00,0.59
6431.00,0.59
6430.00,0.59
6429.00,0.59
6428.00,0.60
6427.00,0.60
6426.00,0.60
6425.00,0.60
6424.00,0.60
6423.00,0.60
6422.00,0.60
6421.00,0.60
6420.00,0.60
6419.00,0.60
6418.00,0.60
6417.00,0.60
6416.00,0.60
6415.00,0.60
6414.00,0.60
6413.00,0.60
6412.00,0.60
6411.00,0.60
6410.00,0.60
6409.00,0.60
6408.00,0.60
6407.00,0.60
6406.00,0.60
6405.00,0.60
6404.00,0.60
6403.00,0.60
6402.00,0.60
6401.00,0.60
6400.00,0.60
6399.00,0.60
6398.00,0.60
6397.00,0.60
6396.00,0.60
6395.00,0.60
6394.00,0.61
6393.00,0.61
6392.00,0.61
6391.00,0.61
6390.00,0.61
6389.00,0.61
6388.00,0.61
6387.00,0.61
6386.00,0.61
6385.00,0.61
6384.00,0.61
6383.00,0.61
6382.00,0.62
6381.00,0.62
6380.00,0.62
6379.00,0.62
6378.00,0.62
6377.00,0.62
6376.00,0.62
6375.00,0.62
6374.00,0.62
6373.00,0.62
6372.00,0.62
6371.00,0.62
6370.00,0.62
6369.00,0.62
6368.00,0.62
6367.00,0.62
6366.00,0.62
6365.00,0.62
6364.00,0.62
6363.00,0.62
6362.00,0.62
6361.00,0.62
6360.00,0.62
6359.00,0.62
6358.00,0.62
6357.00,0.62
6356.00,0.62
6355.00,0.62
6354.00,0.62
6353.00,0.62
6352.00,0.62
6351.00,0.63
6350.00,0.63
6349.00,0.63
6348.00,0.63
6347.00,0.63
6346.00,0.63
6345.00,0.63
6344.00,0.63
6343.00,0.63
6342.00,0.63
6341.00,0.63
6340.00,0.63
6339.00,0.64
6338.00,0.64
6337.00,0.64
6336.00,0.64
6335.00,0.64
6334.00,0.64
6333.00,0.64
6332.00,0.64
6331.00,0.64
6330.00,0.64
6329.00,0.64
6328.00,0.64
6327.00,0.64
6326.00,0.64
6325.00,0.65
6324.00,0.65
6323.00,0.65
6322.00,0.65
6321.00,0.65
6320.00,0.65
6319.00,0.65
6318.00,0.65
6317.00,0.65
6316.00,0.65
6315.00,0.65
6314.00,0.65
6313.00,0.65
6312.00,0.65
6311.00,0.65
6310.00,0.65
6309.00,0.65
6308.00,0.65
6307.00,0.65
6306.00,0.65
6305.00,0.65
6304.00,0.65
6303.00,0.65
6302.00,0.65
6301.00,0.65
6300.00,0.65
6299.00,0.65
6298.00,0.66
6297.00,0.66
6296.00,0.66
6295.00,0.66
6294.00,0.66
6293.00,0.66
6292.00,0.66
6291.00,0.66
6290.00,0.66
6289.00,0.66
6288.00,0.66
6287.00,0.66
6286.00,0.66
6285.00,0.67
6284.00,0.67
6283.00,0.67
6282.00,0.67
6281.00,0.67
6280.00,0.67
6279.00,0.67
6278.00,0.67
6277.00,0.67
6276.00,0.68
6275.00,0.68
6274.00,0.68
6273.00,0.68
6272.00,0.68
6271.00,0.68
6270.00,0.68
6269.00,0.68
6268.00,0.68
6267.00,0.68
6266.00,0.68
6265.00,0.68
6264.00,0.68
6263.00,0.68
6262.00,0.68
6261.00,0.68
6260.00,0.68
6259.00,0.68
6258.00,0.69
6257.00,0.69
6256.00,0.69
6255.00,0.69
6254.00,0.69
6253.00,0.69
6252.00,0.69
6251.00,0.69
6250.00,0.69
6249.00,0.69
6248.00,0.69
6247.00,0.69
6246.00,0.69
6245.00,0.69
6244.00,0.69
6243.00,0.69
6242.00,0.70
6241.00,0.70
6240.00,0.70
6239.00,0.70
6238.00,0.70
6237.00,0.70
6236.00,0.70
6235.00,0.70
6234.00,0.70
6233.00,0.70
6232.00,0.71
6231.00,0.71
6230.00,0.71
6229.00,0.71
6228.00,0.71
6227.00,0.71
6226.00,0.71
6225.00,0.72
6224.00,0.72
6223.00,0.72
6222.00,0.72
6221.00,0.72
6220.00,0.72
6219.00,0.72
6218.00,0.72
6217.00,0.72
6216.00,0.73
6215.00,0.73
6214.00,0.73
6213.00,0.73
6212.00,0.73
6211.00,0.73
6210.00,0.73
6209.00,0.73
6208.00,0.73
6207.00,0.73
6206.00,0.73
6205.00,0.73
6204.00,0.73
6203.00,0.73
6202.00,0.73
6201.00,0.73
6200.00,0.74
6199.00,0.74
6198.00,0.74
6197.00,0.74
6196.00,0.74
6195.00,0.74
6194.00,0.74
6193.00,0.74
6192.00,0.74
6191.00,0.74
6190.00,0.74
6189.00,0.75
6188.00,0.75
6187.00,0.75
6186.00,0.75
6185.00,0.75
6184.00,0.75
6183.00,0.75
6182.00,0.75
6181.00,0.76
6180.00,0.76
6179.00,0.76
6178.00,0.76
6177.00,0.76
6176.00,0.76
6175.00,0.76
6174.00,0.76
6173.00,0.77
6172.00,0.77
6171.00,0.77
6170.00,0.77
6169.00,0.77
6168.00,0.77
6167.00,0.77
6166.00,0.77
6165.00,0.77
6164.00,0.77
6163.00,0.77
6162.00,0.77
6161.00,0.77
6160.00,0.77
6159.00,0.77
6158.00,0.77
6157.00,0.77
6156.00,0.77
6155.00,0.77
6154.00,0.78
6153.00,0.78
6152.00,0.78
6151.00,0.78
6150.00,0.78
6149.00,0.78
6148.00,0.78
6147.00,0.78
6146.00,0.78
6145.00,0.79
6144.00,0.79
6143.00,0.79
6142.00,0.79
6141.00,0.79
6140.00,0.79
6139.00,0.79
6138.00,0.79
6137.00,0.79
6136.00,0.79
6135.00,0.79
6134.00,0.80
6133.00,0.80
6132.00,0.80
6131.00,0.80
6130.00,0.80
6129.00,0.80
6128.00,0.80
6127.00,0.80
6126.00,0.80
6125.00,0.80
6124.00,0.80
6123.00,0.80
6122.00,0.80
6121.00,0.80
6120.00,0.80
6119.00,0.80
6118.00,0.80
6117.00,0.81
6116.00,0.81
6115.00,0.81
6114.00,0.81
6113.00,0.81
6112.00,0.81
6111.00,0.81
6110.00,0.81
6109.00,0.82
6108.00,0.82
6107.00,0.82
6106.00,0.82
6105.00,0.82
6104.00,0.82
6103.00,0.82
6102.00,0.82
6101.00,0.82
6100.00,0.83
6099.00,0.83
6098.00,0.83
6097.00,0.83
6096.00,0.83
6095.00,0.83
6094.00,0.83
6093.00,0.83
6092.00,0.83
6091.00,0.84
6090.00,0.84
6089.00,0.84
6088.00,0.84
6087.00,0.84
6086.00,0.84
6085.00,0.84
6084.00,0.84
6083.00,0.84
6082.00,0.84
6081.00,0.85
6080.00,0.85
6079.00,0.85
6078.00,0.85
6077.00,0.85
6076.00,0.85
6075.00,0.85
6074.00,0.85
6073.00,0.85
6072.00,0.85
6071.00,0.85
6070.00,0.85
6069.00,0.85
6068.00,0.85
6067.00,0.85
6066.00,0.85
6065.00,0.86
6064.00,0.86
6063.00,0.86
6062.00,0.86
6061.00,0.86
6060.00,0.86
6059.00,0.86
6058.00,0.86
6057.00,0.86
6056.00,0.86
6055.00,0.86
6054.00,0.86
6053.00,0.87
6052.00,0.87
6051.00,0.87
6050.00,0.87
6049.00,0.87
6048.00,0.87
6047.00,0.87
6046.00,0.87
6045.00,0.87
6044.00,0.87
6043.00,0.87
6042.00,0.87
6041.00,0.87
6040.00,0.87
6039.00,0.87
6038.00,0.87
6037.00,0.87
6036.00,0.87
6035.00,0.87
6034.00,0.87
6033.00,0.88
6032.00,0.88
6031.00,0.88
6030.00,0.88
6029.00,0.88
6028.00,0.88
6027.00,0.88
6026.00,0.88
6025.00,0.88
6024.00,0.88
6023.00,0.88
6022.00,0.88
6021.00,0.88
6020.00,0.88
6019.00,0.88
6018.00,0.88
6017.00,0.88
6016.00,0.88
6015.00,0.88
6014.00,0.88
6013.00,0.88
6012.00,0.88
6011.00,0.88
6010.00,0.88
6009.00,0.88
6008.00,0.88
6007.00,0.88
6006.00,0.88
6005.00,0.88
6004.00,0.88
6003.00,0.88
6002.00,0.88
6001.00,0.88
6000.00,0.88
5999.00,0.88
5998.00,0.88
5997.00,0.88
5996.00,0.88
5995.00,0.87
5994.00,0.87
5993.00,0.87
5992.00,0.87
5991.00,0.87
5990.00,0.87
5989.00,0.87
5988.00,0.86
5987.00,0.86
5986.00,0.86
5985.00,0.86
5984.00,0.86
5983.00,0.85
5982.00,0.85
5981.00,0.85
5980.00,0.85
5979.00,0.85
5978.00,0.84
5977.00,0.84
5976.00,0.84
5975.00,0.84
5974.00,0.83
5973.00,0.83
5972.00,0.83
5971.00,0.82
5970.00,0.82
5969.00,0.82
5968.00,0.81
5967.00,0.81
5966.00,0.81
5965.00,0.80
5964.00,0.80
5963.00,0.79
5962.00,0.79
5961.00,0.78
5960.00,0.78
5959.00,0.78
5958.00,0.77
5957.00,0.77
5956.00,0.76
5955.00,0.76
5954.00,0.75
5953.00,0.75
5952.00,0.74
5951.00,0.74
5950.00,0.74
5949.00,0.73
5948.00,0.73
5947.00,0.73
5946.00,0.72
5945.00,0.72
5944.00,0.72
5943.00,0.72
5942.00,0.72
5941.00,0.71
5940.00,0.71
5939.00,0.71
5938.00,0.71
5937.00,0.71
5936.00,0.71
5935.00,0.71
5934.00,0.71
5933.00,0.71
5932.00,0.71
5931.00,0.71
5930.00,0.71
5929.00,0.71
5928.00,0.70
5927.00,0.70
5926.00,0.70
5925.00,0.70
5924.00,0.70
5923.00,0.70
5922.00,0.70
5921.00,0.69
5920.00,0.69
5919.00,0.69
5918.00,0.69
5917.00,0.69
5916.00,0.69
5915.00,0.68
5914.00,0.68
5913.00,0.68
5912.00,0.68
5911.00,0.68
5910.00,0.68
5909.00,0.68
5908.00,0.67
5907.00,0.67
5906.00,0.67
5905.00,0.67
5904.00,0.67
5903.00,0.67
5902.00,0.67
5901.00,0.67
5900.00,0.67
5899.00,0.67
5898.00,0.68
5897.00,0.68
5896.00,0.68
5895.00,0.68
5894.00,0.68
5893.00,0.68
5892.00,0.68
5891.00,0.68
5890.00,0.69
5889.00,0.69
5888.00,0.69
5887.00,0.69
5886.00,0.69
5885.00,0.69
5884.00,0.70
5883.00,0.70
5882.00,0.70
5881.00,0.70
5880.00,0.70
5879.00,0.71
5878.00,0.71
5877.00,0.71
5876.00,0.71
5875.00,0.71
5874.00,0.71
5873.00,0.71
5872.00,0.72
5871.00,0.72
5870.00,0.72
5869.00,0.72
5868.00,0.72
5867.00,0.72
5866.00,0.72
5865.00,0.73
5864.00,0.73
5863.00,0.73
5862.00,0.73
5861.00,0.73
5860.00,0.73
5859.00,0.73
5858.00,0.73
5857.00,0.74
5856.00,0.74
5855.00,0.74
5854.00,0.74
5853.00,0.74
5852.00,0.74
5851.00,0.74
5850.00,0.74
5849.00,0.74
5848.00,0.74
5847.00,0.74
5846.00,0.74
5845.00,0.74
5844.00,0.74
5843.00,0.74
5842.00,0.74
5841.00,0.74
5840.00,0.74
5839.00,0.74
5838.00,0.74
5837.00,0.74
5836.00,0.74
5835.00,0.74
5834.00,0.74
5833.00,0.74
5832.00,0.74
5831.00,0.74
5830.00,0.74
5829.00,0.74
5828.00,0.74
5827.00,0.74
5826.00,0.74
5825.00,0.74
5824.00,0.74
5823.00,0.74
5822.00,0.74
5821.00,0.74
5820.00,0.74
5819.00,0.74
5818.00,0.74
5817.00,0.74
5816.00,0.74
5815.00,0.74
5814.00,0.74
5813.00,0.74
5812.00,0.74
5811.00,0.74
5810.00,0.74
5809.00,0.74
5808.00,0.74
5807.00,0.74
5806.00,0.74
5805.00,0.74
5804.00,0.74
5803.00,0.74
5802.00,0.74
5801.00,0.74
5800.00,0.74
5799.00,0.74
5798.00,0.74
5797.00,0.73
5796.00,0.73
5795.00,0.73
5794.00,0.73
5793.00,0.73
5792.00,0.73
5791.00,0.73
5790.00,0.73
5789.00,0.72
5788.00,0.72
5787.00,0.72
5786.00,0.72
5785.00,0.72
5784.00,0.72
5783.00,0.71
5782.00,0.71
5781.00,0.71
5780.00,0.71
5779.00,0.71
5778.00,0.71
5777.00,0.71
5776.00,0.71
5775.00,0.70
5774.00,0.70
5773.00,0.70
5772.00,0.70
5771.00,0.70
5770.00,0.70
5769.00,0.70
5768.00,0.70
5767.00,0.71
5766.00,0.71
5765.00,0.71
5764.00,0.71
5763.00,0.71
5762.00,0.71
5761.00,0.72
5760.00,0.72
5759.00,0.72
5758.00,0.72
5757.00,0.72
5756.00,0.73
5755.00,0.73
5754.00,0.73
5753.00,0.73
5752.00,0.74
5751.00,0.74
5750.00,0.74
5749.00,0.74
5748.00,0.75
5747.00,0.75
5746.00,0.75
5745.00,0.75
5744.00,0.75
5743.00,0.76
5742.00,0.76
5741.00,0.76
5740.00,0.76
5739.00,0.76
5738.00,0.77
5737.00,0.77
5736.00,0.77
5735.00,0.77
5734.00,0.77
5733.00,0.77
5732.00,0.77
5731.00,0.78
5730.00,0.78
5729.00,0.78
5728.00,0.78
5727.00,0.78
5726.00,0.78
5725.00,0.78
5724.00,0.78
5723.00,0.78
5722.00,0.78
5721.00,0.78
5720.00,0.78
5719.00,0.78
5718.00,0.78
5717.00,0.78
5716.00,0.78
5715.00,0.78
5714.00,0.78
5713.00,0.78
5712.00,0.78
5711.00,0.78
5710.00,0.78
5709.00,0.78
5708.00,0.78
5707.00,0.78
5706.00,0.78
5705.00,0.78
5704.00,0.78
5703.00,0.78
5702.00,0.78
5701.00,0.78
5700.00,0.78
5699.00,0.78
5698.00,0.78
5697.00,0.77
5696.00,0.77
5695.00,0.77
5694.00,0.77
5693.00,0.77
5692.00,0.77
5691.00,0.77
5690.00,0.77
5689.00,0.77
5688.00,0.76
5687.00,0.76
5686.00,0.76
5685.00,0.76
5684.00,0.76
5683.00,0.76
5682.00,0.76
5681.00,0.76
5680.00,0.76
5679.00,0.76
5678.00,0.76
5677.00,0.75
5676.00,0.75
5675.00,0.75
5674.00,0.75
5673.00,0.75
5672.00,0.75
5671.00,0.75
5670.00,0.75
5669.00,0.76
5668.00,0.76
5667.00,0.76
5666.00,0.76
5665.00,0.76
5664.00,0.76
5663.00,0.76
5662.00,0.76
5661.00,0.76
5660.00,0.76
5659.00,0.76
5658.00,0.76
5657.00,0.77
5656.00,0.77
5655.00,0.77
5654.00,0.77
5653.00,0.77
5652.00,0.77
5651.00,0.77
5650.00,0.78
5649.00,0.78
5648.00,0.78
5647.00,0.78
5646.00,0.78
5645.00,0.78
5644.00,0.78
5643.00,0.78
5642.00,0.79
5641.00,0.79
5640.00,0.79
5639.00,0.79
5638.00,0.79
5637.00,0.79
5636.00,0.79
5635.00,0.79
5634.00,0.80
5633.00,0.80
5632.00,0.80
5631.00,0.80
5630.00,0.80
5629.00,0.80
5628.00,0.80
5627.00,0.81
5626.00,0.81
5625.00,0.81
5624.00,0.81
5623.00,0.81
5622.00,0.81
5621.00,0.81
5620.00,0.82
5619.00,0.82
5618.00,0.82
5617.00,0.82
5616.00,0.82
5615.00,0.82
5614.00,0.82
5613.00,0.82
5612.00,0.83
5611.00,0.83
5610.00,0.83
5609.00,0.83
5608.00,0.83
5607.00,0.83
5606.00,0.83
5605.00,0.83
5604.00,0.84
5603.00,0.84
5602.00,0.84
5601.00,0.84
5600.00,0.84
5599.00,0.84
5598.00,0.84
5597.00,0.84
5596.00,0.84
5595.00,0.84
5594.00,0.85
5593.00,0.85
5592.00,0.85
5591.00,0.85
5590.00,0.85
5589.00,0.85
5588.00,0.85
5587.00,0.85
5586.00,0.85
5585.00,0.85
5584.00,0.86
5583.00,0.86
5582.00,0.86
5581.00,0.86
5580.00,0.86
5579.00,0.86
5578.00,0.86
5577.00,0.86
5576.00,0.86
5575.00,0.86
5574.00,0.86
5573.00,0.87
5572.00,0.87
5571.00,0.87
5570.00,0.87
5569.00,0.87
5568.00,0.87
5567.00,0.87
5566.00,0.87
5565.00,0.87
5564.00,0.87
5563.00,0.87
5562.00,0.87
5561.00,0.87
5560.00,0.87
5559.00,0.87
5558.00,0.87
5557.00,0.87
5556.00,0.87
5555.00,0.88
5554.00,0.88
5553.00,0.88
5552.00,0.88
5551.00,0.88
5550.00,0.88
5549.00,0.88
5548.00,0.88
5547.00,0.88
5546.00,0.88
5545.00,0.88
5544.00,0.89
5543.00,0.89
5542.00,0.89
5541.00,0.89
5540.00,0.89
5539.00,0.89
5538.00,0.89
5537.00,0.89
5536.00,0.89
5535.00,0.89
5534.00,0.89
5533.00,0.89
5532.00,0.90
5531.00,0.90
5530.00,0.90
5529.00,0.90
5528.00,0.90
5527.00,0.90
5526.00,0.90
5525.00,0.90
5524.00,0.90
5523.00,0.90
5522.00,0.90
5521.00,0.90
5520.00,0.90
5519.00,0.90
5518.00,0.90
5517.00,0.90
5516.00,0.90
5515.00,0.90
5514.00,0.90
5513.00,0.90
5512.00,0.90
5511.00,0.90
5510.00,0.90
5509.00,0.90
5508.00,0.91
5507.00,0.91
5506.00,0.91
5505.00,0.91
5504.00,0.91
5503.00,0.91
5502.00,0.91
5501.00,0.91
5500.00,0.91
5499.00,0.91
5498.00,0.91
5497.00,0.91
5496.00,0.91
5495.00,0.91
5494.00,0.91
5493.00,0.91
5492.00,0.91
5491.00,0.91
5490.00,0.91
5489.00,0.91
5488.00,0.91
5487.00,0.91
5486.00,0.91
5485.00,0.92
5484.00,0.92
5483.00,0.92
5482.00,0.92
5481.00,0.92
5480.00,0.92
5479.00,0.92
5478.00,0.93
5477.00,0.93
5476.00,0.93
5475.00,0.93
5474.00,0.93
5473.00,0.93
5472.00,0.93
5471.00,0.93
5470.00,0.93
5469.00,0.94
5468.00,0.94
5467.00,0.94
5466.00,0.94
5465.00,0.94
5464.00,0.94
5463.00,0.94
5462.00,0.94
5461.00,0.94
5460.00,0.94
5459.00,0.94
5458.00,0.94
5457.00,0.94
5456.00,0.94
5455.00,0.94
5454.00,0.94
5453.00,0.95
5452.00,0.95
5451.00,0.95
5450.00,0.95
5449.00,0.95
5448.00,0.95
5447.00,0.95
5446.00,0.95
5445.00,0.95
5444.00,0.95
5443.00,0.95
5442.00,0.95
5441.00,0.95
5440.00,0.95
5439.00,0.95
5438.00,0.95
5437.00,0.95
5436.00,0.95
5435.00,0.95
5434.00,0.95
5433.00,0.95
5432.00,0.95
5431.00,0.95
5430.00,0.95
5429.00,0.95
5428.00,0.95
5427.00,0.95
5426.00,0.95
5425.00,0.95
5424.00,0.95
5423.00,0.95
5422.00,0.95
5421.00,0.95
5420.00,0.95
5419.00,0.95
5418.00,0.95
5417.00,0.95
5416.00,0.95
5415.00,0.95
5414.00,0.95
5413.00,0.95
5412.00,0.95
5411.00,0.95
5410.00,0.95
5409.00,0.95
5408.00,0.95
5407.00,0.95
5406.00,0.95
5405.00,0.95
5404.00,0.95
5403.00,0.95
5402.00,0.95
5401.00,0.95
5400.00,0.95
5399.00,0.95
5398.00,0.95
5397.00,0.95
5396.00,0.95
5395.00,0.95
5394.00,0.95
5393.00,0.95
5392.00,0.94
5391.00,0.94
5390.00,0.94
5389.00,0.94
5388.00,0.94
5387.00,0.94
5386.00,0.94
5385.00,0.93
5384.00,0.93
5383.00,0.93
5382.00,0.93
5381.00,0.93
5380.00,0.93
5379.00,0.92
5378.00,0.92
5377.00,0.92
5376.00,0.92
5375.00,0.91
5374.00,0.91
5373.00,0.91
5372.00,0.91
5371.00,0.91
5370.00,0.90
5369.00,0.90
5368.00,0.90
5367.00,0.89
5366.00,0.89
5365.00,0.89
5364.00,0.88
5363.00,0.88
5362.00,0.88
5361.00,0.87
5360.00,0.87
5359.00,0.86
5358.00,0.86
5357.00,0.85
5356.00,0.85
5355.00,0.84
5354.00,0.84
5353.00,0.83
5352.00,0.83
5351.00,0.82
5350.00,0.82
5349.00,0.81
5348.00,0.80
5347.00,0.80
5346.00,0.79
5345.00,0.79
5344.00,0.78
5343.00,0.77
5342.00,0.77
5341.00,0.76
5340.00,0.75
5339.00,0.75
5338.00,0.74
5337.00,0.73
5336.00,0.73
5335.00,0.72
5334.00,0.72
5333.00,0.71
5332.00,0.70
5331.00,0.70
5330.00,0.69
5329.00,0.69
5328.00,0.68
5327.00,0.67
5326.00,0.67
5325.00,0.66
5324.00,0.66
5323.00,0.65
5322.00,0.64
5321.00,0.64
5320.00,0.63
5319.00,0.63
5318.00,0.62
5317.00,0.61
5316.00,0.61
5315.00,0.60
5314.00,0.60
5313.00,0.59
5312.00,0.59
5311.00,0.58
5310.00,0.58
5309.00,0.57
5308.00,0.57
5307.00,0.57
5306.00,0.56
5305.00,0.56
5304.00,0.55
5303.00,0.55
5302.00,0.55
5301.00,0.55
5300.00,0.54
5299.00,0.54
5298.00,0.54
5297.00,0.53
5296.00,0.53
5295.00,0.53
5294.00,0.53
5293.00,0.53
5292.00,0.52
5291.00,0.52
5290.00,0.52
5289.00,0.52
5288.00,0.52
5287.00,0.52
5286.00,0.52
5285.00,0.51
5284.00,0.51
5283.00,0.51
5282.00,0.51
5281.00,0.51
5280.00,0.51
5279.00,0.51
5278.00,0.51
5277.00,0.51
5276.00,0.51
5275.00,0.51
5274.00,0.51
5273.00,0.51
5272.00,0.51
5271.00,0.51
5270.00,0.51
5269.00,0.51
5268.00,0.51
5267.00,0.51
5266.00,0.51
5265.00,0.51
5264.00,0.51
5263.00,0.51
5262.00,0.51
5261.00,0.51
5260.00,0.51
5259.00,0.51
5258.00,0.51
5257.00,0.51
5256.00,0.51
5255.00,0.51
5254.00,0.51
5253.00,0.51
5252.00,0.51
5251.00,0.51
5250.00,0.51
5249.00,0.51
5248.00,0.50
5247.00,0.50
5246.00,0.50
5245.00,0.50
5244.00,0.50
5243.00,0.51
5242.00,0.51
5241.00,0.51
5240.00,0.51
5239.00,0.51
5238.00,0.51
5237.00,0.51
5236.00,0.51
5235.00,0.51
5234.00,0.51
5233.00,0.51
5232.00,0.51
5231.00,0.51
5230.00,0.51
5229.00,0.51
5228.00,0.51
5227.00,0.51
5226.00,0.51
5225.00,0.51
5224.00,0.51
5223.00,0.51
5222.00,0.51
5221.00,0.51
5220.00,0.51
5219.00,0.51
5218.00,0.51
5217.00,0.51
5216.00,0.51
5215.00,0.52
5214.00,0.52
5213.00,0.52
5212.00,0.52
5211.00,0.52
5210.00,0.52
5209.00,0.52
5208.00,0.52
5207.00,0.52
5206.00,0.52
5205.00,0.52
5204.00,0.52
5203.00,0.52
5202.00,0.52
5201.00,0.52
5200.00,0.52
5199.00,0.52
5198.00,0.52
5197.00,0.52
5196.00,0.52
5195.00,0.52
5194.00,0.52
5193.00,0.52
5192.00,0.52
5191.00,0.52
5190.00,0.52
5189.00,0.52
5188.00,0.52
5187.00,0.52
5186.00,0.52
5185.00,0.52
5184.00,0.52
5183.00,0.52
5182.00,0.52
5181.00,0.52
5180.00,0.52
5179.00,0.52
5178.00,0.52
5177.00,0.52
5176.00,0.52
5175.00,0.52
5174.00,0.52
5173.00,0.52
5172.00,0.52
5171.00,0.52
5170.00,0.52
5169.00,0.52
5168.00,0.52
5167.00,0.52
5166.00,0.52
5165.00,0.52
5164.00,0.53
5163.00,0.53
5162.00,0.53
5161.00,0.53
5160.00,0.53
5159.00,0.53
5158.00,0.53
5157.00,0.53
5156.00,0.53
5155.00,0.53
5154.00,0.53
5153.00,0.53
5152.00,0.53
5151.00,0.53
5150.00,0.53
5149.00,0.53
5148.00,0.53
5147.00,0.53
5146.00,0.53
5145.00,0.53
5144.00,0.53
5143.00,0.53
5142.00,0.53
5141.00,0.53
5140.00,0.53
5139.00,0.53
5138.00,0.53
5137.00,0.53
5136.00,0.53
5135.00,0.53
5134.00,0.54
5133.00,0.54
5132.00,0.54
5131.00,0.54
5130.00,0.54
5129.00,0.54
5128.00,0.54
5127.00,0.54
5126.00,0.54
5125.00,0.54
5124.00,0.54
5123.00,0.54
5122.00,0.54
5121.00,0.54
5120.00,0.54
5119.00,0.54
5118.00,0.54
5117.00,0.54
5116.00,0.54
5115.00,0.54
5114.00,0.54
5113.00,0.54
5112.00,0.54
5111.00,0.54
5110.00,0.54
5109.00,0.54
5108.00,0.54
5107.00,0.54
5106.00,0.54
5105.00,0.55
5104.00,0.55
5103.00,0.55
5102.00,0.55
5101.00,0.55
5100.00,0.55
5099.00,0.55
5098.00,0.55
5097.00,0.55
5096.00,0.55
5095.00,0.55
5094.00,0.55
5093.00,0.55
5092.00,0.55
5091.00,0.55
5090.00,0.55
5089.00,0.55
5088.00,0.55
5087.00,0.55
5086.00,0.55
5085.00,0.55
5084.00,0.55
5083.00,0.55
5082.00,0.55
5081.00,0.55
5080.00,0.55
5079.00,0.55
5078.00,0.55
5077.00,0.55
5076.00,0.55
5075.00,0.55
5074.00,0.55
5073.00,0.56
5072.00,0.56
5071.00,0.56
5070.00,0.56
5069.00,0.56
5068.00,0.56
5067.00,0.56
5066.00,0.56
5065.00,0.56
5064.00,0.56
5063.00,0.56
5062.00,0.56
5061.00,0.56
5060.00,0.56
5059.00,0.56
5058.00,0.56
5057.00,0.56
5056.00,0.56
5055.00,0.56
5054.00,0.56
5053.00,0.56
5052.00,0.56
5051.00,0.56
5050.00,0.56
5049.00,0.57
5048.00,0.57
5047.00,0.57
5046.00,0.57
5045.00,0.57
5044.00,0.57
5043.00,0.57
5042.00,0.57
5041.00,0.57
5040.00,0.57
5039.00,0.57
5038.00,0.57
5037.00,0.57
5036.00,0.57
5035.00,0.57
5034.00,0.57
5033.00,0.57
5032.00,0.57
5031.00,0.57
5030.00,0.57
5029.00,0.57
5028.00,0.57
5027.00,0.57
5026.00,0.57
5025.00,0.57
5024.00,0.57
5023.00,0.57
5022.00,0.57
5021.00,0.57
5020.00,0.57
5019.00,0.57
5018.00,0.58
5017.00,0.58
5016.00,0.58
5015.00,0.58
5014.00,0.58
5013.00,0.58
5012.00,0.58
5011.00,0.58
5010.00,0.58
5009.00,0.58
5008.00,0.58
5007.00,0.58
5006.00,0.58
5005.00,0.58
5004.00,0.59
5003.00,0.59
5002.00,0.59
5001.00,0.59
5000.00,0.59
4999.00,0.59
4998.00,0.59
4997.00,0.59
4996.00,0.59
4995.00,0.59
4994.00,0.59
4993.00,0.59
4992.00,0.59
4991.00,0.59
4990.00,0.59
4989.00,0.59
4988.00,0.59
4987.00,0.59
4986.00,0.59
4985.00,0.59
4984.00,0.59
4983.00,0.59
4982.00,0.59
4981.00,0.59
4980.00,0.59
4979.00,0.59
4978.00,0.59
4977.00,0.59
4976.00,0.59
4975.00,0.60
4974.00,0.60
4973.00,0.60
4972.00,0.60
4971.00,0.60
4970.00,0.60
4969.00,0.60
4968.00,0.60
4967.00,0.60
4966.00,0.60
4965.00,0.60
4964.00,0.60
4963.00,0.60
4962.00,0.60
4961.00,0.60
4960.00,0.61
4959.00,0.61
4958.00,0.61
4957.00,0.61
4956.00,0.61
4955.00,0.61
4954.00,0.61
4953.00,0.61
4952.00,0.61
4951.00,0.61
4950.00,0.61
4949.00,0.61
4948.00,0.61
4947.00,0.61
4946.00,0.61
4945.00,0.61
4944.00,0.61
4943.00,0.61
4942.00,0.61
4941.00,0.61
4940.00,0.61
4939.00,0.61
4938.00,0.61
4937.00,0.61
4936.00,0.61
4935.00,0.62
4934.00,0.62
4933.00,0.62
4932.00,0.62
4931.00,0.62
4930.00,0.62
4929.00,0.62
4928.00,0.62
4927.00,0.62
4926.00,0.62
4925.00,0.62
4924.00,0.62
4923.00,0.62
4922.00,0.62
4921.00,0.62
4920.00,0.62
4919.00,0.62
4918.00,0.62
4917.00,0.62
4916.00,0.62
4915.00,0.62
4914.00,0.62
4913.00,0.63
4912.00,0.63
4911.00,0.63
4910.00,0.63
4909.00,0.63
4908.00,0.63
4907.00,0.63
4906.00,0.63
4905.00,0.63
4904.00,0.63
4903.00,0.63
4902.00,0.63
4901.00,0.63
4900.00,0.63
4899.00,0.63
4898.00,0.63
4897.00,0.63
4896.00,0.63
4895.00,0.63
4894.00,0.63
4893.00,0.63
4892.00,0.63
4891.00,0.63
4890.00,0.63
4889.00,0.63
4888.00,0.63
4887.00,0.63
4886.00,0.63
4885.00,0.63
4884.00,0.63
4883.00,0.63
4882.00,0.63
4881.00,0.63
4880.00,0.63
4879.00,0.63
4878.00,0.64
4877.00,0.64
4876.00,0.64
4875.00,0.64
4874.00,0.64
4873.00,0.64
4872.00,0.64
4871.00,0.64
4870.00,0.64
4869.00,0.64
4868.00,0.64
4867.00,0.64
4866.00,0.64
4865.00,0.64
4864.00,0.64
4863.00,0.64
4862.00,0.65
4861.00,0.65
4860.00,0.65
4859.00,0.65
4858.00,0.65
4857.00,0.65
4856.00,0.65
4855.00,0.65
4854.00,0.65
4853.00,0.65
4852.00,0.65
4851.00,0.65
4850.00,0.65
4849.00,0.65
4848.00,0.65
4847.00,0.65
4846.00,0.65
4845.00,0.65
4844.00,0.65
4843.00,0.65
4842.00,0.65
4841.00,0.65
4840.00,0.65
4839.00,0.65
4838.00,0.65
4837.00,0.65
4836.00,0.65
4835.00,0.65
4834.00,0.65
4833.00,0.65
4832.00,0.65
4831.00,0.65
4830.00,0.65
4829.00,0.66
4828.00,0.66
4827.00,0.66
4826.00,0.66
4825.00,0.66
4824.00,0.66
4823.00,0.66
4822.00,0.66
4821.00,0.66
4820.00,0.66
4819.00,0.66
4818.00,0.66
4817.00,0.66
4816.00,0.66
4815.00,0.66
4814.00,0.66
4813.00,0.66
4812.00,0.66
4811.00,0.66
4810.00,0.66
4809.00,0.66
4808.00,0.66
4807.00,0.66
4806.00,0.66
4805.00,0.66
4804.00,0.66
4803.00,0.66
4802.00,0.66
4801.00,0.66
4800.00,0.67
4799.00,0.67
4798.00,0.67
4797.00,0.67
4796.00,0.67
4795.00,0.67
4794.00,0.67
4793.00,0.67
4792.00,0.67
4791.00,0.67
4790.00,0.67
4789.00,0.67
4788.00,0.67
4787.00,0.68
4786.00,0.68
4785.00,0.68
4784.00,0.68
4783.00,0.68
4782.00,0.68
4781.00,0.68
4780.00,0.68
4779.00,0.68
4778.00,0.68
4777.00,0.68
4776.00,0.69
4775.00,0.69
4774.00,0.69
4773.00,0.69
4772.00,0.69
4771.00,0.69
4770.00,0.69
4769.00,0.69
4768.00,0.69
4767.00,0.69
4766.00,0.69
4765.00,0.69
4764.00,0.69
4763.00,0.69
4762.00,0.70
4761.00,0.70
4760.00,0.70
4759.00,0.70
4758.00,0.70
4757.00,0.70
4756.00,0.70
4755.00,0.70
4754.00,0.70
4753.00,0.70
4752.00,0.70
4751.00,0.70
4750.00,0.70
4749.00,0.71
4748.00,0.71
4747.00,0.71
4746.00,0.71
4745.00,0.71
4744.00,0.71
4743.00,0.71
4742.00,0.71
4741.00,0.71
4740.00,0.71
4739.00,0.71
4738.00,0.71
4737.00,0.71
4736.00,0.72
4735.00,0.72
4734.00,0.72
4733.00,0.72
4732.00,0.72
4731.00,0.72
4730.00,0.72
4729.00,0.72
4728.00,0.72
4727.00,0.73
4726.00,0.73
4725.00,0.73
4724.00,0.73
4723.00,0.73
4722.00,0.73
4721.00,0.73
4720.00,0.73
4719.00,0.73
4718.00,0.73
4717.00,0.73
4716.00,0.74
4715.00,0.74
4714.00,0.74
4713.00,0.74
4712.00,0.74
4711.00,0.74
4710.00,0.74
4709.00,0.74
4708.00,0.74
4707.00,0.74
4706.00,0.74
4705.00,0.74
4704.00,0.74
4703.00,0.74
4702.00,0.74
4701.00,0.74
4700.00,0.75
4699.00,0.75
4698.00,0.75
4697.00,0.75
4696.00,0.75
4695.00,0.75
4694.00,0.75
4693.00,0.75
4692.00,0.75
4691.00,0.75
4690.00,0.75
4689.00,0.75
4688.00,0.76
4687.00,0.76
4686.00,0.76
4685.00,0.76
4684.00,0.76
4683.00,0.76
4682.00,0.76
4681.00,0.76
4680.00,0.76
4679.00,0.76
4678.00,0.76
4677.00,0.77
4676.00,0.77
4675.00,0.77
4674.00,0.77
4673.00,0.77
4672.00,0.77
4671.00,0.77
4670.00,0.77
4669.00,0.77
4668.00,0.77
4667.00,0.77
4666.00,0.77
4665.00,0.77
4664.00,0.78
4663.00,0.78
4662.00,0.78
4661.00,0.78
4660.00,0.78
4659.00,0.78
4658.00,0.78
4657.00,0.78
4656.00,0.78
4655.00,0.79
4654.00,0.79
4653.00,0.79
4652.00,0.79
4651.00,0.79
4650.00,0.79
4649.00,0.79
4648.00,0.79
4647.00,0.79
4646.00,0.79
4645.00,0.79
4644.00,0.79
4643.00,0.80
4642.00,0.80
4641.00,0.80
4640.00,0.80
4639.00,0.80
4638.00,0.80
4637.00,0.80
4636.00,0.80
4635.00,0.80
4634.00,0.80
4633.00,0.80
4632.00,0.80
4631.00,0.80
4630.00,0.80
4629.00,0.80
4628.00,0.80
4627.00,0.81
4626.00,0.81
4625.00,0.81
4624.00,0.81
4623.00,0.81
4622.00,0.81
4621.00,0.81
4620.00,0.81
4619.00,0.81
4618.00,0.81
4617.00,0.81
4616.00,0.81
4615.00,0.81
4614.00,0.81
4613.00,0.81
4612.00,0.81
4611.00,0.81
4610.00,0.81
4609.00,0.82
4608.00,0.82
4607.00,0.82
4606.00,0.82
4605.00,0.82
4604.00,0.82
4603.00,0.82
4602.00,0.82
4601.00,0.82
4600.00,0.82
4599.00,0.82
4598.00,0.82
4597.00,0.82
4596.00,0.82
4595.00,0.82
4594.00,0.82
4593.00,0.83
4592.00,0.83
4591.00,0.83
4590.00,0.83
4589.00,0.83
4588.00,0.83
4587.00,0.83
4586.00,0.83
4585.00,0.83
4584.00,0.83
4583.00,0.83
4582.00,0.83
4581.00,0.83
4580.00,0.83
4579.00,0.83
4578.00,0.83
4577.00,0.83
4576.00,0.83
4575.00,0.83
4574.00,0.84
4573.00,0.84
4572.00,0.84
4571.00,0.84
4570.00,0.84
4569.00,0.84
4568.00,0.84
4567.00,0.84
4566.00,0.84
4565.00,0.84
4564.00,0.84
4563.00,0.84
4562.00,0.84
4561.00,0.84
4560.00,0.84
4559.00,0.84
4558.00,0.84
4557.00,0.84
4556.00,0.84
4555.00,0.84
4554.00,0.85
4553.00,0.85
4552.00,0.85
4551.00,0.85
4550.00,0.85
4549.00,0.85
4548.00,0.85
4547.00,0.85
4546.00,0.85
4545.00,0.85
4544.00,0.85
4543.00,0.85
4542.00,0.85
4541.00,0.85
4540.00,0.85
4539.00,0.85
4538.00,0.85
4537.00,0.85
4536.00,0.86
4535.00,0.86
4534.00,0.86
4533.00,0.86
4532.00,0.86
4531.00,0.86
4530.00,0.86
4529.00,0.86
4528.00,0.86
4527.00,0.86
4526.00,0.86
4525.00,0.86
4524.00,0.86
4523.00,0.86
4522.00,0.86
4521.00,0.86
4520.00,0.86
4519.00,0.86
4518.00,0.86
4517.00,0.86
4516.00,0.86
4515.00,0.86
4514.00,0.86
4513.00,0.86
4512.00,0.86
4511.00,0.86
4510.00,0.86
4509.00,0.86
4508.00,0.86
4507.00,0.86
4506.00,0.86
4505.00,0.86
4504.00,0.86
4503.00,0.86
4502.00,0.86
4501.00,0.86
4500.00,0.86
4499.00,0.86
4498.00,0.86
4497.00,0.86
4496.00,0.86
4495.00,0.86
4494.00,0.86
4493.00,0.86
4492.00,0.86
4491.00,0.86
4490.00,0.86
4489.00,0.86
4488.00,0.86
4487.00,0.86
4486.00,0.85
4485.00,0.85
4484.00,0.85
4483.00,0.85
4482.00,0.85
4481.00,0.85
4480.00,0.85
4479.00,0.85
4478.00,0.84
4477.00,0.84
4476.00,0.84
4475.00,0.84
4474.00,0.84
4473.00,0.84
4472.00,0.84
4471.00,0.84
4470.00,0.84
4469.00,0.84
4468.00,0.83
4467.00,0.83
4466.00,0.83
4465.00,0.83
4464.00,0.83
4463.00,0.83
4462.00,0.83
4461.00,0.83
4460.00,0.83
4459.00,0.83
4458.00,0.83
4457.00,0.82
4456.00,0.82
4455.00,0.82
4454.00,0.82
4453.00,0.82
4452.00,0.82
4451.00,0.82
4450.00,0.81
4449.00,0.81
4448.00,0.81
4447.00,0.81
4446.00,0.81
4445.00,0.80
4444.00,0.80
4443.00,0.80
4442.00,0.80
4441.00,0.79
4440.00,0.79
4439.00,0.79
4438.00,0.79
4437.00,0.79
4436.00,0.78
4435.00,0.78
4434.00,0.78
4433.00,0.78
4432.00,0.78
4431.00,0.78
4430.00,0.78
4429.00,0.78
4428.00,0.78
4427.00,0.78
4426.00,0.77
4425.00,0.77
4424.00,0.77
4423.00,0.77
4422.00,0.77
4421.00,0.77
4420.00,0.77
4419.00,0.77
4418.00,0.77
4417.00,0.77
4416.00,0.77
4415.00,0.77
4414.00,0.77
4413.00,0.77
4412.00,0.77
4411.00,0.77
4410.00,0.77
4409.00,0.77
4408.00,0.77
4407.00,0.78
4406.00,0.78
4405.00,0.78
4404.00,0.78
4403.00,0.78
4402.00,0.78
4401.00,0.78
4400.00,0.78
4399.00,0.78
4398.00,0.78
4397.00,0.78
4396.00,0.78
4395.00,0.78
4394.00,0.78
4393.00,0.78
4392.00,0.78
4391.00,0.79
4390.00,0.79
4389.00,0.79
4388.00,0.79
4387.00,0.79
4386.00,0.79
4385.00,0.79
4384.00,0.79
4383.00,0.79
4382.00,0.79
4381.00,0.79
4380.00,0.79
4379.00,0.79
4378.00,0.79
4377.00,0.80
4376.00,0.80
4375.00,0.80
4374.00,0.80
4373.00,0.80
4372.00,0.80
4371.00,0.80
4370.00,0.80
4369.00,0.80
4368.00,0.80
4367.00,0.80
4366.00,0.80
4365.00,0.80
4364.00,0.80
4363.00,0.80
4362.00,0.80
4361.00,0.80
4360.00,0.80
4359.00,0.80
4358.00,0.80
4357.00,0.80
4356.00,0.80
4355.00,0.80
4354.00,0.80
4353.00,0.80
4352.00,0.80
4351.00,0.80
4350.00,0.80
4349.00,0.80
4348.00,0.80
4347.00,0.80
4346.00,0.80
4345.00,0.80
4344.00,0.80
4343.00,0.80
4342.00,0.80
4341.00,0.80
4340.00,0.80
4339.00,0.80
4338.00,0.80
4337.00,0.81
4336.00,0.81
4335.00,0.81
4334.00,0.81
4333.00,0.81
4332.00,0.81
4331.00,0.81
4330.00,0.81
4329.00,0.81
4328.00,0.81
4327.00,0.81
4326.00,0.81
4325.00,0.81
4324.00,0.81
4323.00,0.81
4322.00,0.81
4321.00,0.81
4320.00,0.81
4319.00,0.81
4318.00,0.81
4317.00,0.81
4316.00,0.82
4315.00,0.82
4314.00,0.82
4313.00,0.82
4312.00,0.82
4311.00,0.82
4310.00,0.82
4309.00,0.82
4308.00,0.82
4307.00,0.82
4306.00,0.83
4305.00,0.83
4304.00,0.83
4303.00,0.83
4302.00,0.83
4301.00,0.83
4300.00,0.83
4299.00,0.83
4298.00,0.83
4297.00,0.83
4296.00,0.84
4295.00,0.84
4294.00,0.84
4293.00,0.84
4292.00,0.84
4291.00,0.84
4290.00,0.84
4289.00,0.84
4288.00,0.84
4287.00,0.84
4286.00,0.84
4285.00,0.84
4284.00,0.84
4283.00,0.84
4282.00,0.84
4281.00,0.84
4280.00,0.84
4279.00,0.84
4278.00,0.84
4277.00,0.84
4276.00,0.84
4275.00,0.84
4274.00,0.84
4273.00,0.84
4272.00,0.84
4271.00,0.84
4270.00,0.84
4269.00,0.84
4268.00,0.84
4267.00,0.84
4266.00,0.84
4265.00,0.84
4264.00,0.84
4263.00,0.84
4262.00,0.84
4261.00,0.84
4260.00,0.84
4259.00,0.84
4258.00,0.84
4257.00,0.84
4256.00,0.84
4255.00,0.84
4254.00,0.84
4253.00,0.84
4252.00,0.84
4251.00,0.85
4250.00,0.85
4249.00,0.85
4248.00,0.85
4247.00,0.85
4246.00,0.85
4245.00,0.85
4244.00,0.85
4243.00,0.85
4242.00,0.85
4241.00,0.85
4240.00,0.85
4239.00,0.85
4238.00,0.85
4237.00,0.85
4236.00,0.85
4235.00,0.85
4234.00,0.85
4233.00,0.85
4232.00,0.85
4231.00,0.85
4230.00,0.85
4229.00,0.85
4228.00,0.85
4227.00,0.86
4226.00,0.86
4225.00,0.86
4224.00,0.86
4223.00,0.86
4222.00,0.86
4221.00,0.86
4220.00,0.86
4219.00,0.86
4218.00,0.86
4217.00,0.87
4216.00,0.87
4215.00,0.87
4214.00,0.87
4213.00,0.87
4212.00,0.87
4211.00,0.87
4210.00,0.87
4209.00,0.87
4208.00,0.87
4207.00,0.87
4206.00,0.87
4205.00,0.87
4204.00,0.87
4203.00,0.87
4202.00,0.87
4201.00,0.87
4200.00,0.87
4199.00,0.87
4198.00,0.87
4197.00,0.87
4196.00,0.87
4195.00,0.87
4194.00,0.87
4193.00,0.88
4192.00,0.88
4191.00,0.88
4190.00,0.88
4189.00,0.88
4188.00,0.88
4187.00,0.88
4186.00,0.88
4185.00,0.88
4184.00,0.88
4183.00,0.88
4182.00,0.88
4181.00,0.88
4180.00,0.88
4179.00,0.88
4178.00,0.88
4177.00,0.88
4176.00,0.88
4175.00,0.88
4174.00,0.88
4173.00,0.88
4172.00,0.88
4171.00,0.88
4170.00,0.88
4169.00,0.88
4168.00,0.88
4167.00,0.88
4166.00,0.88
4165.00,0.88
4164.00,0.88
4163.00,0.88
4162.00,0.88
4161.00,0.88
4160.00,0.88
4159.00,0.88
4158.00,0.88
4157.00,0.88
4156.00,0.88
4155.00,0.88
4154.00,0.88
4153.00,0.88
4152.00,0.88
4151.00,0.88
4150.00,0.88
4149.00,0.88
4148.00,0.88
4147.00,0.88
4146.00,0.88
4145.00,0.88
4144.00,0.88
4143.00,0.88
4142.00,0.88
4141.00,0.88
4140.00,0.89
4139.00,0.89
4138.00,0.89
4137.00,0.89
4136.00,0.89
4135.00,0.89
4134.00,0.89
4133.00,0.89
4132.00,0.89
4131.00,0.89
4130.00,0.89
4129.00,0.89
4128.00,0.89
4127.00,0.89
4126.00,0.89
4125.00,0.89
4124.00,0.89
4123.00,0.89
4122.00,0.89
4121.00,0.89
4120.00,0.89
4119.00,0.89
4118.00,0.89
4117.00,0.89
4116.00,0.89
4115.00,0.89
4114.00,0.89
4113.00,0.90
4112.00,0.90
4111.00,0.90
4110.00,0.90
4109.00,0.90
4108.00,0.90
4107.00,0.90
4106.00,0.90
4105.00,0.90
4104.00,0.90
4103.00,0.90
4102.00,0.90
4101.00,0.90
4100.00,0.90
4099.00,0.90
4098.00,0.90
4097.00,0.90
4096.00,0.90
4095.00,0.90
4094.00,0.90
4093.00,0.90
4092.00,0.90
4091.00,0.90
4090.00,0.90
4089.00,0.90
4088.00,0.90
4087.00,0.90
4086.00,0.90
4085.00,0.90
4084.00,0.90
4083.00,0.90
4082.00,0.90
4081.00,0.90
4080.00,0.90
4079.00,0.90
4078.00,0.90
4077.00,0.90
4076.00,0.90
4075.00,0.91
4074.00,0.91
4073.00,0.91
4072.00,0.91
4071.00,0.91
4070.00,0.91
4069.00,0.91
4068.00,0.91
4067.00,0.91
4066.00,0.91
4065.00,0.91
4064.00,0.91
4063.00,0.91
4062.00,0.91
4061.00,0.91
4060.00,0.91
4059.00,0.91
4058.00,0.91
4057.00,0.91
4056.00,0.91
4055.00,0.91
4054.00,0.91
4053.00,0.90
4052.00,0.90
4051.00,0.90
4050.00,0.90
4049.00,0.90
4048.00,0.90
4047.00,0.90
4046.00,0.90
4045.00,0.90
4044.00,0.91
4043.00,0.91
4042.00,0.91
4041.00,0.91
4040.00,0.91
4039.00,0.92
4038.00,0.92
4037.00,0.92
4036.00,0.92
4035.00,0.93
4034.00,0.93
4033.00,0.93
4032.00,0.93
4031.00,0.94
4030.00,0.94
4029.00,0.94
4028.00,0.94
4027.00,0.94
4026.00,0.95
4025.00,0.95
4024.00,0.95
4023.00,0.95
4022.00,0.95
4021.00,0.95
4020.00,0.95
4019.00,0.95
4018.00,0.95
4017.00,0.95
4016.00,0.94
4015.00,0.94
4014.00,0.94
4013.00,0.94
4012.00,0.94
4011.00,0.94
4010.00,0.94
4009.00,0.94
4008.00,0.94
4007.00,0.94
4006.00,0.95
4005.00,0.95
4004.00,0.95
4003.00,0.95
4002.00,0.95
4001.00,0.95
4000.00,0.95
