创建为新数据集,样品 424 用户 Administrator 日期 星期四, 三月 08 2018
cm-1,%T
10000.00,0.96
9999.00,0.96
9998.00,0.96
9997.00,0.95
9996.00,0.95
9995.00,0.95
9994.00,0.95
9993.00,0.95
9992.00,0.95
9991.00,0.95
9990.00,0.95
9989.00,0.95
9988.00,0.95
9987.00,0.95
9986.00,0.95
9985.00,0.95
9984.00,0.95
9983.00,0.95
9982.00,0.95
9981.00,0.95
9980.00,0.96
9979.00,0.96
9978.00,0.96
9977.00,0.96
9976.00,0.96
9975.00,0.96
9974.00,0.96
9973.00,0.96
9972.00,0.96
9971.00,0.96
9970.00,0.95
9969.00,0.95
9968.00,0.95
9967.00,0.95
9966.00,0.95
9965.00,0.95
9964.00,0.95
9963.00,0.95
9962.00,0.95
9961.00,0.95
9960.00,0.95
9959.00,0.95
9958.00,0.95
9957.00,0.95
9956.00,0.95
9955.00,0.95
9954.00,0.95
9953.00,0.95
9952.00,0.95
9951.00,0.95
9950.00,0.95
9949.00,0.95
9948.00,0.95
9947.00,0.95
9946.00,0.95
9945.00,0.95
9944.00,0.95
9943.00,0.95
9942.00,0.95
9941.00,0.95
9940.00,0.95
9939.00,0.95
9938.00,0.95
9937.00,0.95
9936.00,0.95
9935.00,0.95
9934.00,0.95
9933.00,0.95
9932.00,0.94
9931.00,0.94
9930.00,0.94
9929.00,0.94
9928.00,0.93
9927.00,0.93
9926.00,0.93
9925.00,0.93
9924.00,0.92
9923.00,0.92
9922.00,0.92
9921.00,0.92
9920.00,0.92
9919.00,0.92
9918.00,0.91
9917.00,0.91
9916.00,0.91
9915.00,0.91
9914.00,0.91
9913.00,0.91
9912.00,0.92
9911.00,0.92
9910.00,0.92
9909.00,0.92
9908.00,0.92
9907.00,0.92
9906.00,0.92
9905.00,0.92
9904.00,0.92
9903.00,0.92
9902.00,0.92
9901.00,0.92
9900.00,0.92
9899.00,0.93
9898.00,0.93
9897.00,0.93
9896.00,0.93
9895.00,0.93
9894.00,0.93
9893.00,0.94
9892.00,0.94
9891.00,0.94
9890.00,0.94
9889.00,0.95
9888.00,0.95
9887.00,0.95
9886.00,0.95
9885.00,0.95
9884.00,0.95
9883.00,0.95
9882.00,0.96
9881.00,0.96
9880.00,0.96
9879.00,0.96
9878.00,0.96
9877.00,0.96
9876.00,0.95
9875.00,0.95
9874.00,0.95
9873.00,0.95
9872.00,0.95
9871.00,0.95
9870.00,0.95
9869.00,0.95
9868.00,0.94
9867.00,0.94
9866.00,0.94
9865.00,0.94
9864.00,0.94
9863.00,0.94
9862.00,0.94
9861.00,0.94
9860.00,0.93
9859.00,0.93
9858.00,0.93
9857.00,0.93
9856.00,0.93
9855.00,0.93
9854.00,0.93
9853.00,0.93
9852.00,0.93
9851.00,0.93
9850.00,0.93
9849.00,0.93
9848.00,0.93
9847.00,0.93
9846.00,0.93
9845.00,0.93
9844.00,0.93
9843.00,0.93
9842.00,0.93
9841.00,0.93
9840.00,0.93
9839.00,0.94
9838.00,0.94
9837.00,0.94
9836.00,0.94
9835.00,0.94
9834.00,0.94
9833.00,0.94
9832.00,0.94
9831.00,0.94
9830.00,0.93
9829.00,0.93
9828.00,0.93
9827.00,0.93
9826.00,0.92
9825.00,0.92
9824.00,0.92
9823.00,0.92
9822.00,0.92
9821.00,0.91
9820.00,0.91
9819.00,0.91
9818.00,0.91
9817.00,0.91
9816.00,0.91
9815.00,0.91
9814.00,0.92
9813.00,0.92
9812.00,0.92
9811.00,0.92
9810.00,0.92
9809.00,0.92
9808.00,0.92
9807.00,0.92
9806.00,0.92
9805.00,0.92
9804.00,0.92
9803.00,0.92
9802.00,0.92
9801.00,0.92
9800.00,0.92
9799.00,0.92
9798.00,0.92
9797.00,0.91
9796.00,0.91
9795.00,0.91
9794.00,0.91
9793.00,0.91
9792.00,0.91
9791.00,0.92
9790.00,0.92
9789.00,0.92
9788.00,0.92
9787.00,0.92
9786.00,0.92
9785.00,0.92
9784.00,0.93
9783.00,0.93
9782.00,0.93
9781.00,0.93
9780.00,0.93
9779.00,0.93
9778.00,0.93
9777.00,0.93
9776.00,0.93
9775.00,0.93
9774.00,0.93
9773.00,0.93
9772.00,0.93
9771.00,0.93
9770.00,0.93
9769.00,0.93
9768.00,0.93
9767.00,0.93
9766.00,0.93
9765.00,0.93
9764.00,0.93
9763.00,0.93
9762.00,0.93
9761.00,0.93
9760.00,0.93
9759.00,0.93
9758.00,0.93
9757.00,0.93
9756.00,0.93
9755.00,0.93
9754.00,0.93
9753.00,0.93
9752.00,0.93
9751.00,0.93
9750.00,0.93
9749.00,0.93
9748.00,0.93
9747.00,0.93
9746.00,0.93
9745.00,0.92
9744.00,0.92
9743.00,0.92
9742.00,0.92
9741.00,0.91
9740.00,0.91
9739.00,0.91
9738.00,0.91
9737.00,0.91
9736.00,0.90
9735.00,0.90
9734.00,0.90
9733.00,0.90
9732.00,0.91
9731.00,0.91
9730.00,0.91
9729.00,0.91
9728.00,0.91
9727.00,0.91
9726.00,0.91
9725.00,0.91
9724.00,0.92
9723.00,0.92
9722.00,0.92
9721.00,0.92
9720.00,0.92
9719.00,0.92
9718.00,0.92
9717.00,0.91
9716.00,0.91
9715.00,0.91
9714.00,0.91
9713.00,0.91
9712.00,0.91
9711.00,0.91
9710.00,0.91
9709.00,0.92
9708.00,0.92
9707.00,0.92
9706.00,0.92
9705.00,0.92
9704.00,0.92
9703.00,0.92
9702.00,0.93
9701.00,0.93
9700.00,0.93
9699.00,0.93
9698.00,0.93
9697.00,0.93
9696.00,0.93
9695.00,0.93
9694.00,0.93
9693.00,0.93
9692.00,0.93
9691.00,0.93
9690.00,0.93
9689.00,0.93
9688.00,0.93
9687.00,0.93
9686.00,0.93
9685.00,0.93
9684.00,0.92
9683.00,0.92
9682.00,0.92
9681.00,0.92
9680.00,0.92
9679.00,0.92
9678.00,0.92
9677.00,0.92
9676.00,0.92
9675.00,0.92
9674.00,0.92
9673.00,0.93
9672.00,0.93
9671.00,0.93
9670.00,0.93
9669.00,0.93
9668.00,0.93
9667.00,0.93
9666.00,0.93
9665.00,0.94
9664.00,0.94
9663.00,0.94
9662.00,0.94
9661.00,0.94
9660.00,0.94
9659.00,0.94
9658.00,0.94
9657.00,0.93
9656.00,0.93
9655.00,0.93
9654.00,0.93
9653.00,0.93
9652.00,0.93
9651.00,0.93
9650.00,0.93
9649.00,0.93
9648.00,0.92
9647.00,0.92
9646.00,0.92
9645.00,0.92
9644.00,0.92
9643.00,0.92
9642.00,0.92
9641.00,0.92
9640.00,0.92
9639.00,0.92
9638.00,0.92
9637.00,0.92
9636.00,0.92
9635.00,0.92
9634.00,0.92
9633.00,0.92
9632.00,0.92
9631.00,0.92
9630.00,0.92
9629.00,0.92
9628.00,0.92
9627.00,0.92
9626.00,0.92
9625.00,0.92
9624.00,0.92
9623.00,0.92
9622.00,0.93
9621.00,0.93
9620.00,0.93
9619.00,0.93
9618.00,0.93
9617.00,0.94
9616.00,0.94
9615.00,0.94
9614.00,0.94
9613.00,0.94
9612.00,0.94
9611.00,0.94
9610.00,0.94
9609.00,0.95
9608.00,0.95
9607.00,0.95
9606.00,0.95
9605.00,0.95
9604.00,0.94
9603.00,0.94
9602.00,0.94
9601.00,0.94
9600.00,0.94
9599.00,0.94
9598.00,0.94
9597.00,0.94
9596.00,0.93
9595.00,0.93
9594.00,0.93
9593.00,0.93
9592.00,0.93
9591.00,0.93
9590.00,0.93
9589.00,0.92
9588.00,0.92
9587.00,0.92
9586.00,0.92
9585.00,0.92
9584.00,0.92
9583.00,0.92
9582.00,0.92
9581.00,0.93
9580.00,0.93
9579.00,0.93
9578.00,0.93
9577.00,0.93
9576.00,0.94
9575.00,0.94
9574.00,0.94
9573.00,0.94
9572.00,0.95
9571.00,0.95
9570.00,0.95
9569.00,0.95
9568.00,0.95
9567.00,0.95
9566.00,0.95
9565.00,0.95
9564.00,0.95
9563.00,0.95
9562.00,0.95
9561.00,0.95
9560.00,0.95
9559.00,0.95
9558.00,0.95
9557.00,0.95
9556.00,0.95
9555.00,0.94
9554.00,0.94
9553.00,0.94
9552.00,0.94
9551.00,0.94
9550.00,0.93
9549.00,0.93
9548.00,0.93
9547.00,0.92
9546.00,0.92
9545.00,0.92
9544.00,0.92
9543.00,0.91
9542.00,0.91
9541.00,0.91
9540.00,0.91
9539.00,0.91
9538.00,0.91
9537.00,0.91
9536.00,0.91
9535.00,0.91
9534.00,0.91
9533.00,0.91
9532.00,0.92
9531.00,0.92
9530.00,0.92
9529.00,0.92
9528.00,0.92
9527.00,0.92
9526.00,0.92
9525.00,0.92
9524.00,0.92
9523.00,0.92
9522.00,0.92
9521.00,0.92
9520.00,0.92
9519.00,0.91
9518.00,0.91
9517.00,0.91
9516.00,0.91
9515.00,0.91
9514.00,0.91
9513.00,0.91
9512.00,0.91
9511.00,0.91
9510.00,0.91
9509.00,0.91
9508.00,0.92
9507.00,0.92
9506.00,0.92
9505.00,0.92
9504.00,0.93
9503.00,0.93
9502.00,0.93
9501.00,0.93
9500.00,0.94
9499.00,0.94
9498.00,0.94
9497.00,0.94
9496.00,0.95
9495.00,0.95
9494.00,0.95
9493.00,0.95
9492.00,0.95
9491.00,0.95
9490.00,0.95
9489.00,0.95
9488.00,0.95
9487.00,0.95
9486.00,0.95
9485.00,0.95
9484.00,0.95
9483.00,0.95
9482.00,0.95
9481.00,0.95
9480.00,0.95
9479.00,0.95
9478.00,0.95
9477.00,0.95
9476.00,0.95
9475.00,0.95
9474.00,0.94
9473.00,0.94
9472.00,0.94
9471.00,0.94
9470.00,0.94
9469.00,0.94
9468.00,0.93
9467.00,0.93
9466.00,0.93
9465.00,0.93
9464.00,0.92
9463.00,0.92
9462.00,0.92
9461.00,0.92
9460.00,0.92
9459.00,0.91
9458.00,0.91
9457.00,0.91
9456.00,0.91
9455.00,0.91
9454.00,0.91
9453.00,0.91
9452.00,0.91
9451.00,0.91
9450.00,0.91
9449.00,0.92
9448.00,0.92
9447.00,0.92
9446.00,0.92
9445.00,0.92
9444.00,0.92
9443.00,0.92
9442.00,0.92
9441.00,0.92
9440.00,0.92
9439.00,0.92
9438.00,0.92
9437.00,0.92
9436.00,0.92
9435.00,0.92
9434.00,0.92
9433.00,0.92
9432.00,0.92
9431.00,0.92
9430.00,0.92
9429.00,0.92
9428.00,0.92
9427.00,0.92
9426.00,0.92
9425.00,0.92
9424.00,0.92
9423.00,0.92
9422.00,0.92
9421.00,0.92
9420.00,0.92
9419.00,0.92
9418.00,0.92
9417.00,0.92
9416.00,0.92
9415.00,0.92
9414.00,0.92
9413.00,0.92
9412.00,0.92
9411.00,0.92
9410.00,0.92
9409.00,0.92
9408.00,0.92
9407.00,0.93
9406.00,0.93
9405.00,0.93
9404.00,0.93
9403.00,0.93
9402.00,0.93
9401.00,0.93
9400.00,0.93
9399.00,0.93
9398.00,0.93
9397.00,0.93
9396.00,0.93
9395.00,0.93
9394.00,0.93
9393.00,0.93
9392.00,0.93
9391.00,0.93
9390.00,0.93
9389.00,0.94
9388.00,0.94
9387.00,0.94
9386.00,0.94
9385.00,0.94
9384.00,0.94
9383.00,0.94
9382.00,0.94
9381.00,0.94
9380.00,0.94
9379.00,0.94
9378.00,0.94
9377.00,0.94
9376.00,0.94
9375.00,0.94
9374.00,0.94
9373.00,0.93
9372.00,0.93
9371.00,0.93
9370.00,0.93
9369.00,0.93
9368.00,0.93
9367.00,0.93
9366.00,0.93
9365.00,0.93
9364.00,0.93
9363.00,0.93
9362.00,0.93
9361.00,0.93
9360.00,0.93
9359.00,0.93
9358.00,0.93
9357.00,0.93
9356.00,0.93
9355.00,0.93
9354.00,0.93
9353.00,0.93
9352.00,0.94
9351.00,0.94
9350.00,0.94
9349.00,0.94
9348.00,0.94
9347.00,0.94
9346.00,0.94
9345.00,0.94
9344.00,0.94
9343.00,0.94
9342.00,0.94
9341.00,0.94
9340.00,0.94
9339.00,0.94
9338.00,0.94
9337.00,0.94
9336.00,0.94
9335.00,0.94
9334.00,0.94
9333.00,0.94
9332.00,0.93
9331.00,0.93
9330.00,0.93
9329.00,0.93
9328.00,0.93
9327.00,0.93
9326.00,0.93
9325.00,0.93
9324.00,0.93
9323.00,0.93
9322.00,0.93
9321.00,0.93
9320.00,0.93
9319.00,0.93
9318.00,0.93
9317.00,0.93
9316.00,0.93
9315.00,0.93
9314.00,0.93
9313.00,0.93
9312.00,0.93
9311.00,0.93
9310.00,0.93
9309.00,0.93
9308.00,0.93
9307.00,0.93
9306.00,0.93
9305.00,0.93
9304.00,0.93
9303.00,0.93
9302.00,0.93
9301.00,0.93
9300.00,0.93
9299.00,0.93
9298.00,0.93
9297.00,0.93
9296.00,0.93
9295.00,0.93
9294.00,0.93
9293.00,0.93
9292.00,0.93
9291.00,0.93
9290.00,0.93
9289.00,0.93
9288.00,0.93
9287.00,0.93
9286.00,0.93
9285.00,0.93
9284.00,0.93
9283.00,0.93
9282.00,0.93
9281.00,0.93
9280.00,0.93
9279.00,0.93
9278.00,0.93
9277.00,0.93
9276.00,0.93
9275.00,0.93
9274.00,0.93
9273.00,0.93
9272.00,0.93
9271.00,0.93
9270.00,0.94
9269.00,0.94
9268.00,0.94
9267.00,0.94
9266.00,0.94
9265.00,0.94
9264.00,0.94
9263.00,0.95
9262.00,0.95
9261.00,0.95
9260.00,0.95
9259.00,0.95
9258.00,0.95
9257.00,0.95
9256.00,0.95
9255.00,0.96
9254.00,0.96
9253.00,0.96
9252.00,0.96
9251.00,0.96
9250.00,0.95
9249.00,0.95
9248.00,0.95
9247.00,0.95
9246.00,0.95
9245.00,0.95
9244.00,0.95
9243.00,0.95
9242.00,0.95
9241.00,0.95
9240.00,0.95
9239.00,0.94
9238.00,0.94
9237.00,0.94
9236.00,0.94
9235.00,0.94
9234.00,0.94
9233.00,0.94
9232.00,0.94
9231.00,0.94
9230.00,0.94
9229.00,0.94
9228.00,0.94
9227.00,0.94
9226.00,0.94
9225.00,0.94
9224.00,0.94
9223.00,0.94
9222.00,0.94
9221.00,0.94
9220.00,0.94
9219.00,0.94
9218.00,0.94
9217.00,0.94
9216.00,0.94
9215.00,0.94
9214.00,0.94
9213.00,0.94
9212.00,0.94
9211.00,0.94
9210.00,0.94
9209.00,0.94
9208.00,0.94
9207.00,0.94
9206.00,0.94
9205.00,0.94
9204.00,0.94
9203.00,0.94
9202.00,0.94
9201.00,0.94
9200.00,0.94
9199.00,0.93
9198.00,0.93
9197.00,0.93
9196.00,0.93
9195.00,0.93
9194.00,0.93
9193.00,0.93
9192.00,0.93
9191.00,0.93
9190.00,0.94
9189.00,0.94
9188.00,0.94
9187.00,0.94
9186.00,0.94
9185.00,0.94
9184.00,0.94
9183.00,0.94
9182.00,0.94
9181.00,0.94
9180.00,0.94
9179.00,0.95
9178.00,0.95
9177.00,0.95
9176.00,0.95
9175.00,0.95
9174.00,0.95
9173.00,0.95
9172.00,0.95
9171.00,0.95
9170.00,0.95
9169.00,0.95
9168.00,0.95
9167.00,0.95
9166.00,0.95
9165.00,0.95
9164.00,0.95
9163.00,0.95
9162.00,0.95
9161.00,0.95
9160.00,0.95
9159.00,0.95
9158.00,0.95
9157.00,0.95
9156.00,0.95
9155.00,0.95
9154.00,0.95
9153.00,0.95
9152.00,0.95
9151.00,0.95
9150.00,0.95
9149.00,0.95
9148.00,0.95
9147.00,0.94
9146.00,0.94
9145.00,0.94
9144.00,0.94
9143.00,0.94
9142.00,0.93
9141.00,0.93
9140.00,0.93
9139.00,0.93
9138.00,0.93
9137.00,0.92
9136.00,0.92
9135.00,0.92
9134.00,0.92
9133.00,0.92
9132.00,0.92
9131.00,0.92
9130.00,0.92
9129.00,0.92
9128.00,0.92
9127.00,0.92
9126.00,0.93
9125.00,0.93
9124.00,0.93
9123.00,0.93
9122.00,0.94
9121.00,0.94
9120.00,0.94
9119.00,0.94
9118.00,0.95
9117.00,0.95
9116.00,0.95
9115.00,0.95
9114.00,0.95
9113.00,0.95
9112.00,0.95
9111.00,0.95
9110.00,0.95
9109.00,0.95
9108.00,0.95
9107.00,0.95
9106.00,0.95
9105.00,0.95
9104.00,0.95
9103.00,0.95
9102.00,0.95
9101.00,0.95
9100.00,0.95
9099.00,0.95
9098.00,0.95
9097.00,0.95
9096.00,0.94
9095.00,0.94
9094.00,0.94
9093.00,0.94
9092.00,0.94
9091.00,0.94
9090.00,0.94
9089.00,0.94
9088.00,0.94
9087.00,0.94
9086.00,0.94
9085.00,0.94
9084.00,0.94
9083.00,0.94
9082.00,0.94
9081.00,0.94
9080.00,0.93
9079.00,0.93
9078.00,0.93
9077.00,0.93
9076.00,0.94
9075.00,0.94
9074.00,0.94
9073.00,0.94
9072.00,0.94
9071.00,0.94
9070.00,0.94
9069.00,0.94
9068.00,0.94
9067.00,0.94
9066.00,0.94
9065.00,0.94
9064.00,0.94
9063.00,0.94
9062.00,0.94
9061.00,0.94
9060.00,0.94
9059.00,0.94
9058.00,0.94
9057.00,0.94
9056.00,0.94
9055.00,0.94
9054.00,0.94
9053.00,0.94
9052.00,0.95
9051.00,0.95
9050.00,0.95
9049.00,0.95
9048.00,0.95
9047.00,0.95
9046.00,0.95
9045.00,0.95
9044.00,0.95
9043.00,0.95
9042.00,0.95
9041.00,0.95
9040.00,0.95
9039.00,0.95
9038.00,0.95
9037.00,0.95
9036.00,0.95
9035.00,0.95
9034.00,0.95
9033.00,0.95
9032.00,0.95
9031.00,0.95
9030.00,0.95
9029.00,0.95
9028.00,0.95
9027.00,0.95
9026.00,0.95
9025.00,0.95
9024.00,0.95
9023.00,0.95
9022.00,0.95
9021.00,0.95
9020.00,0.95
9019.00,0.95
9018.00,0.95
9017.00,0.95
9016.00,0.95
9015.00,0.95
9014.00,0.95
9013.00,0.96
9012.00,0.96
9011.00,0.96
9010.00,0.96
9009.00,0.96
9008.00,0.96
9007.00,0.95
9006.00,0.95
9005.00,0.95
9004.00,0.95
9003.00,0.95
9002.00,0.95
9001.00,0.95
9000.00,0.95
8999.00,0.94
8998.00,0.94
8997.00,0.94
8996.00,0.94
8995.00,0.94
8994.00,0.94
8993.00,0.93
8992.00,0.93
8991.00,0.93
8990.00,0.93
8989.00,0.93
8988.00,0.93
8987.00,0.93
8986.00,0.93
8985.00,0.93
8984.00,0.93
8983.00,0.93
8982.00,0.93
8981.00,0.93
8980.00,0.93
8979.00,0.93
8978.00,0.93
8977.00,0.93
8976.00,0.93
8975.00,0.93
8974.00,0.93
8973.00,0.93
8972.00,0.93
8971.00,0.93
8970.00,0.93
8969.00,0.93
8968.00,0.93
8967.00,0.93
8966.00,0.93
8965.00,0.93
8964.00,0.93
8963.00,0.93
8962.00,0.93
8961.00,0.93
8960.00,0.93
8959.00,0.93
8958.00,0.93
8957.00,0.93
8956.00,0.93
8955.00,0.93
8954.00,0.93
8953.00,0.92
8952.00,0.92
8951.00,0.92
8950.00,0.92
8949.00,0.92
8948.00,0.92
8947.00,0.92
8946.00,0.92
8945.00,0.92
8944.00,0.92
8943.00,0.92
8942.00,0.92
8941.00,0.92
8940.00,0.92
8939.00,0.92
8938.00,0.93
8937.00,0.93
8936.00,0.93
8935.00,0.93
8934.00,0.93
8933.00,0.93
8932.00,0.93
8931.00,0.93
8930.00,0.93
8929.00,0.93
8928.00,0.93
8927.00,0.93
8926.00,0.93
8925.00,0.93
8924.00,0.94
8923.00,0.94
8922.00,0.94
8921.00,0.94
8920.00,0.94
8919.00,0.94
8918.00,0.94
8917.00,0.94
8916.00,0.93
8915.00,0.93
8914.00,0.93
8913.00,0.93
8912.00,0.93
8911.00,0.93
8910.00,0.93
8909.00,0.93
8908.00,0.93
8907.00,0.93
8906.00,0.93
8905.00,0.93
8904.00,0.93
8903.00,0.93
8902.00,0.93
8901.00,0.93
8900.00,0.93
8899.00,0.92
8898.00,0.92
8897.00,0.92
8896.00,0.92
8895.00,0.92
8894.00,0.92
8893.00,0.92
8892.00,0.92
8891.00,0.92
8890.00,0.92
8889.00,0.92
8888.00,0.92
8887.00,0.92
8886.00,0.92
8885.00,0.92
8884.00,0.92
8883.00,0.92
8882.00,0.92
8881.00,0.92
8880.00,0.92
8879.00,0.93
8878.00,0.93
8877.00,0.93
8876.00,0.93
8875.00,0.93
8874.00,0.93
8873.00,0.93
8872.00,0.93
8871.00,0.93
8870.00,0.92
8869.00,0.92
8868.00,0.92
8867.00,0.92
8866.00,0.92
8865.00,0.92
8864.00,0.92
8863.00,0.92
8862.00,0.92
8861.00,0.92
8860.00,0.92
8859.00,0.92
8858.00,0.92
8857.00,0.92
8856.00,0.92
8855.00,0.92
8854.00,0.92
8853.00,0.92
8852.00,0.92
8851.00,0.92
8850.00,0.92
8849.00,0.92
8848.00,0.92
8847.00,0.92
8846.00,0.92
8845.00,0.92
8844.00,0.92
8843.00,0.92
8842.00,0.92
8841.00,0.92
8840.00,0.92
8839.00,0.92
8838.00,0.92
8837.00,0.92
8836.00,0.93
8835.00,0.93
8834.00,0.93
8833.00,0.93
8832.00,0.93
8831.00,0.93
8830.00,0.93
8829.00,0.93
8828.00,0.93
8827.00,0.93
8826.00,0.93
8825.00,0.93
8824.00,0.93
8823.00,0.92
8822.00,0.92
8821.00,0.92
8820.00,0.92
8819.00,0.92
8818.00,0.92
8817.00,0.92
8816.00,0.92
8815.00,0.92
8814.00,0.92
8813.00,0.92
8812.00,0.92
8811.00,0.92
8810.00,0.92
8809.00,0.92
8808.00,0.92
8807.00,0.92
8806.00,0.92
8805.00,0.92
8804.00,0.92
8803.00,0.92
8802.00,0.92
8801.00,0.92
8800.00,0.92
8799.00,0.92
8798.00,0.92
8797.00,0.93
8796.00,0.93
8795.00,0.93
8794.00,0.93
8793.00,0.93
8792.00,0.93
8791.00,0.93
8790.00,0.93
8789.00,0.93
8788.00,0.93
8787.00,0.93
8786.00,0.93
8785.00,0.93
8784.00,0.93
8783.00,0.93
8782.00,0.93
8781.00,0.93
8780.00,0.93
8779.00,0.93
8778.00,0.93
8777.00,0.92
8776.00,0.92
8775.00,0.92
8774.00,0.92
8773.00,0.92
8772.00,0.92
8771.00,0.92
8770.00,0.91
8769.00,0.91
8768.00,0.91
8767.00,0.91
8766.00,0.91
8765.00,0.91
8764.00,0.91
8763.00,0.91
8762.00,0.90
8761.00,0.90
8760.00,0.90
8759.00,0.90
8758.00,0.90
8757.00,0.90
8756.00,0.90
8755.00,0.90
8754.00,0.90
8753.00,0.90
8752.00,0.90
8751.00,0.90
8750.00,0.90
8749.00,0.90
8748.00,0.90
8747.00,0.90
8746.00,0.90
8745.00,0.90
8744.00,0.90
8743.00,0.90
8742.00,0.90
8741.00,0.90
8740.00,0.90
8739.00,0.90
8738.00,0.90
8737.00,0.90
8736.00,0.90
8735.00,0.90
8734.00,0.90
8733.00,0.90
8732.00,0.90
8731.00,0.90
8730.00,0.90
8729.00,0.90
8728.00,0.90
8727.00,0.90
8726.00,0.90
8725.00,0.90
8724.00,0.90
8723.00,0.90
8722.00,0.90
8721.00,0.90
8720.00,0.90
8719.00,0.89
8718.00,0.89
8717.00,0.89
8716.00,0.89
8715.00,0.89
8714.00,0.89
8713.00,0.89
8712.00,0.89
8711.00,0.89
8710.00,0.89
8709.00,0.89
8708.00,0.89
8707.00,0.89
8706.00,0.89
8705.00,0.89
8704.00,0.89
8703.00,0.89
8702.00,0.89
8701.00,0.89
8700.00,0.90
8699.00,0.90
8698.00,0.90
8697.00,0.90
8696.00,0.90
8695.00,0.90
8694.00,0.90
8693.00,0.91
8692.00,0.91
8691.00,0.91
8690.00,0.91
8689.00,0.91
8688.00,0.91
8687.00,0.91
8686.00,0.91
8685.00,0.91
8684.00,0.90
8683.00,0.90
8682.00,0.90
8681.00,0.90
8680.00,0.90
8679.00,0.90
8678.00,0.90
8677.00,0.90
8676.00,0.89
8675.00,0.89
8674.00,0.89
8673.00,0.89
8672.00,0.89
8671.00,0.89
8670.00,0.89
8669.00,0.89
8668.00,0.89
8667.00,0.88
8666.00,0.88
8665.00,0.88
8664.00,0.88
8663.00,0.88
8662.00,0.88
8661.00,0.88
8660.00,0.88
8659.00,0.88
8658.00,0.88
8657.00,0.88
8656.00,0.88
8655.00,0.88
8654.00,0.89
8653.00,0.89
8652.00,0.89
8651.00,0.89
8650.00,0.89
8649.00,0.89
8648.00,0.90
8647.00,0.90
8646.00,0.90
8645.00,0.90
8644.00,0.90
8643.00,0.90
8642.00,0.90
8641.00,0.90
8640.00,0.90
8639.00,0.90
8638.00,0.90
8637.00,0.90
8636.00,0.90
8635.00,0.90
8634.00,0.90
8633.00,0.90
8632.00,0.90
8631.00,0.89
8630.00,0.89
8629.00,0.89
8628.00,0.89
8627.00,0.89
8626.00,0.89
8625.00,0.89
8624.00,0.88
8623.00,0.88
8622.00,0.88
8621.00,0.88
8620.00,0.88
8619.00,0.88
8618.00,0.88
8617.00,0.88
8616.00,0.88
8615.00,0.88
8614.00,0.88
8613.00,0.88
8612.00,0.88
8611.00,0.88
8610.00,0.88
8609.00,0.88
8608.00,0.88
8607.00,0.88
8606.00,0.87
8605.00,0.87
8604.00,0.87
8603.00,0.87
8602.00,0.87
8601.00,0.87
8600.00,0.87
8599.00,0.87
8598.00,0.87
8597.00,0.87
8596.00,0.87
8595.00,0.87
8594.00,0.87
8593.00,0.87
8592.00,0.87
8591.00,0.87
8590.00,0.87
8589.00,0.87
8588.00,0.87
8587.00,0.88
8586.00,0.88
8585.00,0.88
8584.00,0.88
8583.00,0.88
8582.00,0.88
8581.00,0.88
8580.00,0.88
8579.00,0.88
8578.00,0.88
8577.00,0.88
8576.00,0.88
8575.00,0.88
8574.00,0.88
8573.00,0.88
8572.00,0.88
8571.00,0.88
8570.00,0.88
8569.00,0.88
8568.00,0.88
8567.00,0.88
8566.00,0.88
8565.00,0.88
8564.00,0.88
8563.00,0.88
8562.00,0.88
8561.00,0.87
8560.00,0.87
8559.00,0.87
8558.00,0.87
8557.00,0.87
8556.00,0.87
8555.00,0.87
8554.00,0.87
8553.00,0.87
8552.00,0.87
8551.00,0.87
8550.00,0.87
8549.00,0.87
8548.00,0.87
8547.00,0.87
8546.00,0.87
8545.00,0.87
8544.00,0.87
8543.00,0.87
8542.00,0.87
8541.00,0.87
8540.00,0.87
8539.00,0.87
8538.00,0.87
8537.00,0.87
8536.00,0.87
8535.00,0.86
8534.00,0.86
8533.00,0.86
8532.00,0.86
8531.00,0.86
8530.00,0.86
8529.00,0.86
8528.00,0.86
8527.00,0.86
8526.00,0.86
8525.00,0.86
8524.00,0.86
8523.00,0.86
8522.00,0.86
8521.00,0.86
8520.00,0.86
8519.00,0.86
8518.00,0.86
8517.00,0.86
8516.00,0.85
8515.00,0.85
8514.00,0.85
8513.00,0.85
8512.00,0.86
8511.00,0.86
8510.00,0.86
8509.00,0.86
8508.00,0.86
8507.00,0.86
8506.00,0.86
8505.00,0.85
8504.00,0.85
8503.00,0.85
8502.00,0.85
8501.00,0.85
8500.00,0.85
8499.00,0.85
8498.00,0.85
8497.00,0.85
8496.00,0.85
8495.00,0.85
8494.00,0.85
8493.00,0.85
8492.00,0.85
8491.00,0.85
8490.00,0.85
8489.00,0.85
8488.00,0.85
8487.00,0.85
8486.00,0.85
8485.00,0.85
8484.00,0.85
8483.00,0.84
8482.00,0.84
8481.00,0.84
8480.00,0.84
8479.00,0.84
8478.00,0.84
8477.00,0.84
8476.00,0.84
8475.00,0.84
8474.00,0.84
8473.00,0.84
8472.00,0.84
8471.00,0.84
8470.00,0.84
8469.00,0.84
8468.00,0.84
8467.00,0.83
8466.00,0.83
8465.00,0.83
8464.00,0.83
8463.00,0.83
8462.00,0.83
8461.00,0.83
8460.00,0.83
8459.00,0.83
8458.00,0.83
8457.00,0.83
8456.00,0.83
8455.00,0.83
8454.00,0.83
8453.00,0.83
8452.00,0.83
8451.00,0.83
8450.00,0.83
8449.00,0.83
8448.00,0.83
8447.00,0.83
8446.00,0.82
8445.00,0.82
8444.00,0.82
8443.00,0.82
8442.00,0.82
8441.00,0.82
8440.00,0.82
8439.00,0.82
8438.00,0.82
8437.00,0.82
8436.00,0.82
8435.00,0.82
8434.00,0.82
8433.00,0.82
8432.00,0.82
8431.00,0.82
8430.00,0.83
8429.00,0.83
8428.00,0.83
8427.00,0.83
8426.00,0.83
8425.00,0.83
8424.00,0.83
8423.00,0.84
8422.00,0.84
8421.00,0.84
8420.00,0.84
8419.00,0.84
8418.00,0.84
8417.00,0.84
8416.00,0.84
8415.00,0.84
8414.00,0.84
8413.00,0.84
8412.00,0.84
8411.00,0.84
8410.00,0.84
8409.00,0.84
8408.00,0.84
8407.00,0.84
8406.00,0.84
8405.00,0.84
8404.00,0.84
8403.00,0.84
8402.00,0.84
8401.00,0.84
8400.00,0.84
8399.00,0.84
8398.00,0.84
8397.00,0.84
8396.00,0.84
8395.00,0.84
8394.00,0.84
8393.00,0.84
8392.00,0.84
8391.00,0.84
8390.00,0.85
8389.00,0.85
8388.00,0.85
8387.00,0.85
8386.00,0.85
8385.00,0.85
8384.00,0.85
8383.00,0.85
8382.00,0.85
8381.00,0.85
8380.00,0.85
8379.00,0.85
8378.00,0.85
8377.00,0.85
8376.00,0.85
8375.00,0.85
8374.00,0.85
8373.00,0.85
8372.00,0.85
8371.00,0.85
8370.00,0.85
8369.00,0.85
8368.00,0.85
8367.00,0.85
8366.00,0.85
8365.00,0.85
8364.00,0.85
8363.00,0.85
8362.00,0.85
8361.00,0.85
8360.00,0.85
8359.00,0.85
8358.00,0.85
8357.00,0.85
8356.00,0.85
8355.00,0.85
8354.00,0.85
8353.00,0.85
8352.00,0.85
8351.00,0.85
8350.00,0.85
8349.00,0.85
8348.00,0.86
8347.00,0.86
8346.00,0.86
8345.00,0.86
8344.00,0.86
8343.00,0.86
8342.00,0.86
8341.00,0.86
8340.00,0.86
8339.00,0.86
8338.00,0.86
8337.00,0.86
8336.00,0.86
8335.00,0.86
8334.00,0.86
8333.00,0.86
8332.00,0.86
8331.00,0.86
8330.00,0.86
8329.00,0.86
8328.00,0.86
8327.00,0.86
8326.00,0.86
8325.00,0.86
8324.00,0.86
8323.00,0.86
8322.00,0.86
8321.00,0.86
8320.00,0.86
8319.00,0.86
8318.00,0.86
8317.00,0.86
8316.00,0.86
8315.00,0.86
8314.00,0.86
8313.00,0.86
8312.00,0.86
8311.00,0.86
8310.00,0.86
8309.00,0.86
8308.00,0.86
8307.00,0.86
8306.00,0.86
8305.00,0.86
8304.00,0.86
8303.00,0.86
8302.00,0.86
8301.00,0.86
8300.00,0.86
8299.00,0.86
8298.00,0.86
8297.00,0.86
8296.00,0.86
8295.00,0.86
8294.00,0.86
8293.00,0.86
8292.00,0.86
8291.00,0.86
8290.00,0.86
8289.00,0.86
8288.00,0.86
8287.00,0.86
8286.00,0.86
8285.00,0.86
8284.00,0.86
8283.00,0.86
8282.00,0.86
8281.00,0.87
8280.00,0.87
8279.00,0.87
8278.00,0.87
8277.00,0.87
8276.00,0.87
8275.00,0.87
8274.00,0.87
8273.00,0.87
8272.00,0.87
8271.00,0.87
8270.00,0.87
8269.00,0.87
8268.00,0.87
8267.00,0.87
8266.00,0.87
8265.00,0.87
8264.00,0.87
8263.00,0.87
8262.00,0.86
8261.00,0.86
8260.00,0.86
8259.00,0.86
8258.00,0.86
8257.00,0.86
8256.00,0.86
8255.00,0.86
8254.00,0.86
8253.00,0.86
8252.00,0.86
8251.00,0.86
8250.00,0.86
8249.00,0.86
8248.00,0.86
8247.00,0.86
8246.00,0.86
8245.00,0.86
8244.00,0.86
8243.00,0.86
8242.00,0.86
8241.00,0.86
8240.00,0.86
8239.00,0.87
8238.00,0.87
8237.00,0.87
8236.00,0.87
8235.00,0.87
8234.00,0.87
8233.00,0.87
8232.00,0.87
8231.00,0.87
8230.00,0.87
8229.00,0.88
8228.00,0.88
8227.00,0.88
8226.00,0.88
8225.00,0.88
8224.00,0.88
8223.00,0.88
8222.00,0.88
8221.00,0.88
8220.00,0.88
8219.00,0.88
8218.00,0.88
8217.00,0.88
8216.00,0.88
8215.00,0.88
8214.00,0.88
8213.00,0.88
8212.00,0.88
8211.00,0.88
8210.00,0.88
8209.00,0.88
8208.00,0.88
8207.00,0.88
8206.00,0.88
8205.00,0.88
8204.00,0.88
8203.00,0.88
8202.00,0.88
8201.00,0.88
8200.00,0.88
8199.00,0.88
8198.00,0.88
8197.00,0.88
8196.00,0.88
8195.00,0.88
8194.00,0.88
8193.00,0.88
8192.00,0.88
8191.00,0.88
8190.00,0.88
8189.00,0.89
8188.00,0.89
8187.00,0.89
8186.00,0.89
8185.00,0.89
8184.00,0.89
8183.00,0.89
8182.00,0.89
8181.00,0.89
8180.00,0.89
8179.00,0.89
8178.00,0.89
8177.00,0.89
8176.00,0.89
8175.00,0.89
8174.00,0.89
8173.00,0.89
8172.00,0.89
8171.00,0.89
8170.00,0.89
8169.00,0.89
8168.00,0.89
8167.00,0.89
8166.00,0.89
8165.00,0.89
8164.00,0.89
8163.00,0.89
8162.00,0.89
8161.00,0.89
8160.00,0.89
8159.00,0.89
8158.00,0.89
8157.00,0.89
8156.00,0.89
8155.00,0.89
8154.00,0.89
8153.00,0.89
8152.00,0.89
8151.00,0.89
8150.00,0.89
8149.00,0.89
8148.00,0.89
8147.00,0.89
8146.00,0.89
8145.00,0.89
8144.00,0.89
8143.00,0.89
8142.00,0.89
8141.00,0.90
8140.00,0.90
8139.00,0.90
8138.00,0.90
8137.00,0.90
8136.00,0.90
8135.00,0.90
8134.00,0.90
8133.00,0.90
8132.00,0.90
8131.00,0.90
8130.00,0.90
8129.00,0.90
8128.00,0.90
8127.00,0.90
8126.00,0.90
8125.00,0.90
8124.00,0.90
8123.00,0.90
8122.00,0.90
8121.00,0.90
8120.00,0.90
8119.00,0.90
8118.00,0.90
8117.00,0.90
8116.00,0.90
8115.00,0.90
8114.00,0.90
8113.00,0.90
8112.00,0.90
8111.00,0.90
8110.00,0.90
8109.00,0.90
8108.00,0.90
8107.00,0.90
8106.00,0.90
8105.00,0.90
8104.00,0.90
8103.00,0.90
8102.00,0.90
8101.00,0.90
8100.00,0.90
8099.00,0.90
8098.00,0.90
8097.00,0.90
8096.00,0.90
8095.00,0.90
8094.00,0.90
8093.00,0.90
8092.00,0.90
8091.00,0.90
8090.00,0.90
8089.00,0.90
8088.00,0.90
8087.00,0.90
8086.00,0.90
8085.00,0.90
8084.00,0.90
8083.00,0.90
8082.00,0.90
8081.00,0.90
8080.00,0.90
8079.00,0.90
8078.00,0.90
8077.00,0.90
8076.00,0.90
8075.00,0.90
8074.00,0.90
8073.00,0.90
8072.00,0.90
8071.00,0.90
8070.00,0.90
8069.00,0.90
8068.00,0.90
8067.00,0.90
8066.00,0.90
8065.00,0.90
8064.00,0.90
8063.00,0.90
8062.00,0.90
8061.00,0.90
8060.00,0.90
8059.00,0.90
8058.00,0.90
8057.00,0.91
8056.00,0.91
8055.00,0.91
8054.00,0.91
8053.00,0.91
8052.00,0.91
8051.00,0.92
8050.00,0.92
8049.00,0.92
8048.00,0.92
8047.00,0.92
8046.00,0.92
8045.00,0.92
8044.00,0.92
8043.00,0.92
8042.00,0.92
8041.00,0.92
8040.00,0.92
8039.00,0.92
8038.00,0.92
8037.00,0.92
8036.00,0.92
8035.00,0.92
8034.00,0.92
8033.00,0.92
8032.00,0.92
8031.00,0.92
8030.00,0.92
8029.00,0.92
8028.00,0.92
8027.00,0.92
8026.00,0.92
8025.00,0.92
8024.00,0.92
8023.00,0.92
8022.00,0.92
8021.00,0.92
8020.00,0.92
8019.00,0.92
8018.00,0.92
8017.00,0.92
8016.00,0.92
8015.00,0.92
8014.00,0.92
8013.00,0.92
8012.00,0.92
8011.00,0.92
8010.00,0.92
8009.00,0.92
8008.00,0.92
8007.00,0.92
8006.00,0.92
8005.00,0.92
8004.00,0.92
8003.00,0.92
8002.00,0.92
8001.00,0.92
8000.00,0.92
7999.00,0.92
7998.00,0.92
7997.00,0.91
7996.00,0.91
7995.00,0.91
7994.00,0.91
7993.00,0.91
7992.00,0.91
7991.00,0.91
7990.00,0.91
7989.00,0.91
7988.00,0.91
7987.00,0.91
7986.00,0.91
7985.00,0.91
7984.00,0.91
7983.00,0.91
7982.00,0.91
7981.00,0.91
7980.00,0.91
7979.00,0.92
7978.00,0.92
7977.00,0.92
7976.00,0.92
7975.00,0.92
7974.00,0.92
7973.00,0.92
7972.00,0.92
7971.00,0.92
7970.00,0.92
7969.00,0.92
7968.00,0.92
7967.00,0.92
7966.00,0.92
7965.00,0.93
7964.00,0.93
7963.00,0.93
7962.00,0.93
7961.00,0.93
7960.00,0.93
7959.00,0.93
7958.00,0.93
7957.00,0.93
7956.00,0.93
7955.00,0.93
7954.00,0.93
7953.00,0.93
7952.00,0.93
7951.00,0.93
7950.00,0.93
7949.00,0.93
7948.00,0.93
7947.00,0.93
7946.00,0.93
7945.00,0.93
7944.00,0.93
7943.00,0.93
7942.00,0.93
7941.00,0.93
7940.00,0.93
7939.00,0.93
7938.00,0.93
7937.00,0.93
7936.00,0.93
7935.00,0.93
7934.00,0.93
7933.00,0.93
7932.00,0.93
7931.00,0.93
7930.00,0.93
7929.00,0.93
7928.00,0.93
7927.00,0.93
7926.00,0.93
7925.00,0.93
7924.00,0.93
7923.00,0.93
7922.00,0.93
7921.00,0.93
7920.00,0.93
7919.00,0.93
7918.00,0.93
7917.00,0.93
7916.00,0.93
7915.00,0.93
7914.00,0.93
7913.00,0.93
7912.00,0.93
7911.00,0.93
7910.00,0.94
7909.00,0.94
7908.00,0.94
7907.00,0.94
7906.00,0.94
7905.00,0.94
7904.00,0.94
7903.00,0.94
7902.00,0.94
7901.00,0.94
7900.00,0.94
7899.00,0.94
7898.00,0.94
7897.00,0.94
7896.00,0.94
7895.00,0.94
7894.00,0.94
7893.00,0.94
7892.00,0.93
7891.00,0.93
7890.00,0.93
7889.00,0.93
7888.00,0.93
7887.00,0.93
7886.00,0.93
7885.00,0.93
7884.00,0.93
7883.00,0.93
7882.00,0.93
7881.00,0.93
7880.00,0.93
7879.00,0.93
7878.00,0.93
7877.00,0.93
7876.00,0.93
7875.00,0.93
7874.00,0.93
7873.00,0.93
7872.00,0.93
7871.00,0.93
7870.00,0.93
7869.00,0.93
7868.00,0.93
7867.00,0.93
7866.00,0.93
7865.00,0.93
7864.00,0.93
7863.00,0.93
7862.00,0.93
7861.00,0.93
7860.00,0.93
7859.00,0.93
7858.00,0.93
7857.00,0.93
7856.00,0.93
7855.00,0.94
7854.00,0.94
7853.00,0.94
7852.00,0.94
7851.00,0.94
7850.00,0.94
7849.00,0.94
7848.00,0.94
7847.00,0.94
7846.00,0.94
7845.00,0.94
7844.00,0.94
7843.00,0.94
7842.00,0.94
7841.00,0.94
7840.00,0.94
7839.00,0.94
7838.00,0.94
7837.00,0.94
7836.00,0.94
7835.00,0.94
7834.00,0.94
7833.00,0.94
7832.00,0.94
7831.00,0.94
7830.00,0.94
7829.00,0.94
7828.00,0.94
7827.00,0.94
7826.00,0.94
7825.00,0.94
7824.00,0.94
7823.00,0.94
7822.00,0.94
7821.00,0.94
7820.00,0.93
7819.00,0.93
7818.00,0.93
7817.00,0.93
7816.00,0.93
7815.00,0.93
7814.00,0.93
7813.00,0.93
7812.00,0.93
7811.00,0.93
7810.00,0.93
7809.00,0.93
7808.00,0.93
7807.00,0.93
7806.00,0.93
7805.00,0.94
7804.00,0.94
7803.00,0.94
7802.00,0.94
7801.00,0.94
7800.00,0.94
7799.00,0.94
7798.00,0.94
7797.00,0.94
7796.00,0.95
7795.00,0.95
7794.00,0.95
7793.00,0.95
7792.00,0.95
7791.00,0.95
7790.00,0.95
7789.00,0.95
7788.00,0.95
7787.00,0.95
7786.00,0.95
7785.00,0.95
7784.00,0.95
7783.00,0.95
7782.00,0.96
7781.00,0.96
7780.00,0.96
7779.00,0.96
7778.00,0.96
7777.00,0.96
7776.00,0.96
7775.00,0.96
7774.00,0.96
7773.00,0.96
7772.00,0.96
7771.00,0.95
7770.00,0.95
7769.00,0.95
7768.00,0.95
7767.00,0.95
7766.00,0.95
7765.00,0.95
7764.00,0.95
7763.00,0.95
7762.00,0.95
7761.00,0.95
7760.00,0.95
7759.00,0.95
7758.00,0.95
7757.00,0.95
7756.00,0.95
7755.00,0.95
7754.00,0.95
7753.00,0.95
7752.00,0.95
7751.00,0.96
7750.00,0.96
7749.00,0.96
7748.00,0.96
7747.00,0.96
7746.00,0.95
7745.00,0.95
7744.00,0.95
7743.00,0.95
7742.00,0.95
7741.00,0.95
7740.00,0.95
7739.00,0.95
7738.00,0.95
7737.00,0.95
7736.00,0.95
7735.00,0.95
7734.00,0.95
7733.00,0.95
7732.00,0.95
7731.00,0.95
7730.00,0.95
7729.00,0.95
7728.00,0.95
7727.00,0.95
7726.00,0.95
7725.00,0.95
7724.00,0.95
7723.00,0.95
7722.00,0.95
7721.00,0.95
7720.00,0.95
7719.00,0.95
7718.00,0.95
7717.00,0.95
7716.00,0.95
7715.00,0.95
7714.00,0.95
7713.00,0.95
7712.00,0.95
7711.00,0.95
7710.00,0.95
7709.00,0.95
7708.00,0.95
7707.00,0.95
7706.00,0.95
7705.00,0.95
7704.00,0.95
7703.00,0.95
7702.00,0.95
7701.00,0.95
7700.00,0.95
7699.00,0.95
7698.00,0.95
7697.00,0.95
7696.00,0.95
7695.00,0.95
7694.00,0.95
7693.00,0.95
7692.00,0.94
7691.00,0.94
7690.00,0.94
7689.00,0.94
7688.00,0.94
7687.00,0.94
7686.00,0.94
7685.00,0.94
7684.00,0.94
7683.00,0.94
7682.00,0.94
7681.00,0.94
7680.00,0.95
7679.00,0.95
7678.00,0.95
7677.00,0.95
7676.00,0.95
7675.00,0.95
7674.00,0.95
7673.00,0.95
7672.00,0.95
7671.00,0.95
7670.00,0.95
7669.00,0.95
7668.00,0.95
7667.00,0.96
7666.00,0.96
7665.00,0.96
7664.00,0.96
7663.00,0.96
7662.00,0.96
7661.00,0.96
7660.00,0.96
7659.00,0.96
7658.00,0.96
7657.00,0.95
7656.00,0.95
7655.00,0.95
7654.00,0.95
7653.00,0.95
7652.00,0.95
7651.00,0.95
7650.00,0.95
7649.00,0.95
7648.00,0.95
7647.00,0.95
7646.00,0.95
7645.00,0.95
7644.00,0.95
7643.00,0.95
7642.00,0.95
7641.00,0.95
7640.00,0.95
7639.00,0.94
7638.00,0.94
7637.00,0.94
7636.00,0.94
7635.00,0.94
7634.00,0.94
7633.00,0.94
7632.00,0.95
7631.00,0.95
7630.00,0.95
7629.00,0.95
7628.00,0.95
7627.00,0.95
7626.00,0.95
7625.00,0.95
7624.00,0.95
7623.00,0.95
7622.00,0.95
7621.00,0.95
7620.00,0.95
7619.00,0.95
7618.00,0.96
7617.00,0.96
7616.00,0.96
7615.00,0.96
7614.00,0.96
7613.00,0.96
7612.00,0.96
7611.00,0.96
7610.00,0.96
7609.00,0.96
7608.00,0.96
7607.00,0.96
7606.00,0.96
7605.00,0.96
7604.00,0.96
7603.00,0.96
7602.00,0.96
7601.00,0.96
7600.00,0.96
7599.00,0.96
7598.00,0.96
7597.00,0.96
7596.00,0.96
7595.00,0.96
7594.00,0.95
7593.00,0.95
7592.00,0.95
7591.00,0.95
7590.00,0.95
7589.00,0.95
7588.00,0.95
7587.00,0.95
7586.00,0.95
7585.00,0.95
7584.00,0.95
7583.00,0.95
7582.00,0.95
7581.00,0.95
7580.00,0.95
7579.00,0.95
7578.00,0.95
7577.00,0.95
7576.00,0.95
7575.00,0.95
7574.00,0.95
7573.00,0.95
7572.00,0.95
7571.00,0.95
7570.00,0.95
7569.00,0.95
7568.00,0.95
7567.00,0.95
7566.00,0.95
7565.00,0.95
7564.00,0.95
7563.00,0.95
7562.00,0.95
7561.00,0.95
7560.00,0.95
7559.00,0.95
7558.00,0.95
7557.00,0.95
7556.00,0.95
7555.00,0.95
7554.00,0.95
7553.00,0.95
7552.00,0.95
7551.00,0.95
7550.00,0.95
7549.00,0.95
7548.00,0.95
7547.00,0.95
7546.00,0.95
7545.00,0.95
7544.00,0.95
7543.00,0.95
7542.00,0.95
7541.00,0.95
7540.00,0.95
7539.00,0.95
7538.00,0.95
7537.00,0.95
7536.00,0.95
7535.00,0.95
7534.00,0.95
7533.00,0.95
7532.00,0.94
7531.00,0.94
7530.00,0.94
7529.00,0.94
7528.00,0.94
7527.00,0.94
7526.00,0.94
7525.00,0.94
7524.00,0.94
7523.00,0.93
7522.00,0.93
7521.00,0.93
7520.00,0.93
7519.00,0.93
7518.00,0.93
7517.00,0.93
7516.00,0.93
7515.00,0.93
7514.00,0.93
7513.00,0.93
7512.00,0.94
7511.00,0.94
7510.00,0.94
7509.00,0.94
7508.00,0.94
7507.00,0.94
7506.00,0.94
7505.00,0.94
7504.00,0.94
7503.00,0.94
7502.00,0.94
7501.00,0.94
7500.00,0.94
7499.00,0.94
7498.00,0.94
7497.00,0.94
7496.00,0.94
7495.00,0.93
7494.00,0.93
7493.00,0.93
7492.00,0.93
7491.00,0.93
7490.00,0.93
7489.00,0.93
7488.00,0.93
7487.00,0.93
7486.00,0.93
7485.00,0.93
7484.00,0.93
7483.00,0.93
7482.00,0.93
7481.00,0.93
7480.00,0.93
7479.00,0.93
7478.00,0.93
7477.00,0.93
7476.00,0.93
7475.00,0.93
7474.00,0.93
7473.00,0.93
7472.00,0.93
7471.00,0.93
7470.00,0.93
7469.00,0.93
7468.00,0.93
7467.00,0.93
7466.00,0.93
7465.00,0.93
7464.00,0.93
7463.00,0.93
7462.00,0.93
7461.00,0.92
7460.00,0.92
7459.00,0.92
7458.00,0.92
7457.00,0.92
7456.00,0.92
7455.00,0.92
7454.00,0.92
7453.00,0.92
7452.00,0.92
7451.00,0.92
7450.00,0.92
7449.00,0.92
7448.00,0.92
7447.00,0.92
7446.00,0.92
7445.00,0.92
7444.00,0.92
7443.00,0.92
7442.00,0.92
7441.00,0.92
7440.00,0.92
7439.00,0.92
7438.00,0.92
7437.00,0.92
7436.00,0.92
7435.00,0.92
7434.00,0.92
7433.00,0.92
7432.00,0.92
7431.00,0.91
7430.00,0.91
7429.00,0.91
7428.00,0.91
7427.00,0.91
7426.00,0.91
7425.00,0.91
7424.00,0.91
7423.00,0.91
7422.00,0.91
7421.00,0.91
7420.00,0.91
7419.00,0.91
7418.00,0.91
7417.00,0.91
7416.00,0.91
7415.00,0.91
7414.00,0.91
7413.00,0.91
7412.00,0.91
7411.00,0.91
7410.00,0.90
7409.00,0.90
7408.00,0.90
7407.00,0.90
7406.00,0.90
7405.00,0.90
7404.00,0.90
7403.00,0.90
7402.00,0.90
7401.00,0.89
7400.00,0.89
7399.00,0.89
7398.00,0.89
7397.00,0.89
7396.00,0.89
7395.00,0.89
7394.00,0.89
7393.00,0.89
7392.00,0.89
7391.00,0.89
7390.00,0.89
7389.00,0.88
7388.00,0.88
7387.00,0.88
7386.00,0.88
7385.00,0.88
7384.00,0.88
7383.00,0.88
7382.00,0.88
7381.00,0.88
7380.00,0.88
7379.00,0.87
7378.00,0.87
7377.00,0.87
7376.00,0.87
7375.00,0.87
7374.00,0.87
7373.00,0.87
7372.00,0.87
7371.00,0.87
7370.00,0.87
7369.00,0.87
7368.00,0.87
7367.00,0.87
7366.00,0.87
7365.00,0.87
7364.00,0.87
7363.00,0.87
7362.00,0.87
7361.00,0.87
7360.00,0.87
7359.00,0.87
7358.00,0.87
7357.00,0.87
7356.00,0.87
7355.00,0.87
7354.00,0.87
7353.00,0.87
7352.00,0.87
7351.00,0.87
7350.00,0.87
7349.00,0.87
7348.00,0.87
7347.00,0.87
7346.00,0.87
7345.00,0.87
7344.00,0.87
7343.00,0.87
7342.00,0.87
7341.00,0.87
7340.00,0.87
7339.00,0.87
7338.00,0.87
7337.00,0.87
7336.00,0.87
7335.00,0.87
7334.00,0.87
7333.00,0.87
7332.00,0.87
7331.00,0.87
7330.00,0.87
7329.00,0.87
7328.00,0.87
7327.00,0.87
7326.00,0.87
7325.00,0.86
7324.00,0.86
7323.00,0.86
7322.00,0.86
7321.00,0.86
7320.00,0.86
7319.00,0.86
7318.00,0.86
7317.00,0.86
7316.00,0.86
7315.00,0.86
7314.00,0.86
7313.00,0.86
7312.00,0.86
7311.00,0.86
7310.00,0.86
7309.00,0.86
7308.00,0.86
7307.00,0.86
7306.00,0.86
7305.00,0.86
7304.00,0.86
7303.00,0.86
7302.00,0.86
7301.00,0.86
7300.00,0.85
7299.00,0.85
7298.00,0.85
7297.00,0.85
7296.00,0.85
7295.00,0.85
7294.00,0.85
7293.00,0.85
7292.00,0.84
7291.00,0.84
7290.00,0.84
7289.00,0.84
7288.00,0.84
7287.00,0.84
7286.00,0.84
7285.00,0.84
7284.00,0.84
7283.00,0.84
7282.00,0.84
7281.00,0.84
7280.00,0.83
7279.00,0.83
7278.00,0.83
7277.00,0.83
7276.00,0.83
7275.00,0.83
7274.00,0.83
7273.00,0.83
7272.00,0.83
7271.00,0.83
7270.00,0.83
7269.00,0.83
7268.00,0.82
7267.00,0.82
7266.00,0.82
7265.00,0.82
7264.00,0.82
7263.00,0.82
7262.00,0.82
7261.00,0.82
7260.00,0.82
7259.00,0.82
7258.00,0.82
7257.00,0.82
7256.00,0.82
7255.00,0.82
7254.00,0.82
7253.00,0.82
7252.00,0.82
7251.00,0.81
7250.00,0.81
7249.00,0.81
7248.00,0.81
7247.00,0.81
7246.00,0.81
7245.00,0.81
7244.00,0.81
7243.00,0.80
7242.00,0.80
7241.00,0.80
7240.00,0.80
7239.00,0.80
7238.00,0.80
7237.00,0.79
7236.00,0.79
7235.00,0.79
7234.00,0.79
7233.00,0.78
7232.00,0.78
7231.00,0.78
7230.00,0.78
7229.00,0.78
7228.00,0.78
7227.00,0.77
7226.00,0.77
7225.00,0.77
7224.00,0.77
7223.00,0.77
7222.00,0.77
7221.00,0.76
7220.00,0.76
7219.00,0.76
7218.00,0.76
7217.00,0.76
7216.00,0.75
7215.00,0.75
7214.00,0.75
7213.00,0.75
7212.00,0.74
7211.00,0.74
7210.00,0.74
7209.00,0.74
7208.00,0.73
7207.00,0.73
7206.00,0.73
7205.00,0.73
7204.00,0.73
7203.00,0.73
7202.00,0.72
7201.00,0.72
7200.00,0.72
7199.00,0.72
7198.00,0.72
7197.00,0.72
7196.00,0.72
7195.00,0.72
7194.00,0.72
7193.00,0.71
7192.00,0.71
7191.00,0.71
7190.00,0.71
7189.00,0.71
7188.00,0.71
7187.00,0.71
7186.00,0.70
7185.00,0.70
7184.00,0.70
7183.00,0.70
7182.00,0.70
7181.00,0.69
7180.00,0.69
7179.00,0.69
7178.00,0.69
7177.00,0.68
7176.00,0.68
7175.00,0.68
7174.00,0.68
7173.00,0.67
7172.00,0.67
7171.00,0.67
7170.00,0.67
7169.00,0.66
7168.00,0.66
7167.00,0.66
7166.00,0.66
7165.00,0.66
7164.00,0.65
7163.00,0.65
7162.00,0.65
7161.00,0.65
7160.00,0.64
7159.00,0.64
7158.00,0.64
7157.00,0.64
7156.00,0.64
7155.00,0.64
7154.00,0.63
7153.00,0.63
7152.00,0.63
7151.00,0.63
7150.00,0.63
7149.00,0.63
7148.00,0.62
7147.00,0.62
7146.00,0.62
7145.00,0.62
7144.00,0.62
7143.00,0.61
7142.00,0.61
7141.00,0.61
7140.00,0.61
7139.00,0.61
7138.00,0.60
7137.00,0.60
7136.00,0.60
7135.00,0.60
7134.00,0.60
7133.00,0.60
7132.00,0.59
7131.00,0.59
7130.00,0.59
7129.00,0.59
7128.00,0.59
7127.00,0.59
7126.00,0.59
7125.00,0.58
7124.00,0.58
7123.00,0.58
7122.00,0.58
7121.00,0.58
7120.00,0.58
7119.00,0.57
7118.00,0.57
7117.00,0.57
7116.00,0.57
7115.00,0.57
7114.00,0.57
7113.00,0.56
7112.00,0.56
7111.00,0.56
7110.00,0.56
7109.00,0.56
7108.00,0.56
7107.00,0.56
7106.00,0.55
7105.00,0.55
7104.00,0.55
7103.00,0.55
7102.00,0.55
7101.00,0.54
7100.00,0.54
7099.00,0.54
7098.00,0.54
7097.00,0.54
7096.00,0.53
7095.00,0.53
7094.00,0.53
7093.00,0.53
7092.00,0.53
7091.00,0.53
7090.00,0.53
7089.00,0.53
7088.00,0.52
7087.00,0.52
7086.00,0.52
7085.00,0.52
7084.00,0.52
7083.00,0.52
7082.00,0.52
7081.00,0.52
7080.00,0.52
7079.00,0.52
7078.00,0.52
7077.00,0.52
7076.00,0.52
7075.00,0.51
7074.00,0.51
7073.00,0.51
7072.00,0.51
7071.00,0.51
7070.00,0.51
7069.00,0.51
7068.00,0.51
7067.00,0.50
7066.00,0.50
7065.00,0.50
7064.00,0.50
7063.00,0.50
7062.00,0.50
7061.00,0.50
7060.00,0.50
7059.00,0.50
7058.00,0.50
7057.00,0.50
7056.00,0.50
7055.00,0.50
7054.00,0.49
7053.00,0.49
7052.00,0.49
7051.00,0.49
7050.00,0.49
7049.00,0.49
7048.00,0.49
7047.00,0.49
7046.00,0.49
7045.00,0.49
7044.00,0.49
7043.00,0.48
7042.00,0.48
7041.00,0.48
7040.00,0.48
7039.00,0.48
7038.00,0.48
7037.00,0.48
7036.00,0.48
7035.00,0.48
7034.00,0.48
7033.00,0.48
7032.00,0.48
7031.00,0.48
7030.00,0.47
7029.00,0.47
7028.00,0.47
7027.00,0.47
7026.00,0.47
7025.00,0.47
7024.00,0.47
7023.00,0.47
7022.00,0.47
7021.00,0.47
7020.00,0.47
7019.00,0.47
7018.00,0.47
7017.00,0.47
7016.00,0.47
7015.00,0.47
7014.00,0.47
7013.00,0.47
7012.00,0.47
7011.00,0.47
7010.00,0.47
7009.00,0.47
7008.00,0.46
7007.00,0.46
7006.00,0.46
7005.00,0.46
7004.00,0.46
7003.00,0.46
7002.00,0.46
7001.00,0.46
7000.00,0.46
6999.00,0.46
6998.00,0.46
6997.00,0.46
6996.00,0.46
6995.00,0.45
6994.00,0.45
6993.00,0.45
6992.00,0.45
6991.00,0.45
6990.00,0.45
6989.00,0.44
6988.00,0.44
6987.00,0.44
6986.00,0.44
6985.00,0.44
6984.00,0.44
6983.00,0.44
6982.00,0.44
6981.00,0.44
6980.00,0.44
6979.00,0.44
6978.00,0.44
6977.00,0.44
6976.00,0.44
6975.00,0.44
6974.00,0.44
6973.00,0.44
6972.00,0.44
6971.00,0.44
6970.00,0.44
6969.00,0.44
6968.00,0.45
6967.00,0.45
6966.00,0.45
6965.00,0.45
6964.00,0.45
6963.00,0.45
6962.00,0.45
6961.00,0.44
6960.00,0.44
6959.00,0.44
6958.00,0.44
6957.00,0.44
6956.00,0.44
6955.00,0.44
6954.00,0.44
6953.00,0.44
6952.00,0.44
6951.00,0.44
6950.00,0.43
6949.00,0.43
6948.00,0.43
6947.00,0.43
6946.00,0.43
6945.00,0.43
6944.00,0.43
6943.00,0.43
6942.00,0.43
6941.00,0.43
6940.00,0.43
6939.00,0.43
6938.00,0.43
6937.00,0.43
6936.00,0.43
6935.00,0.43
6934.00,0.43
6933.00,0.43
6932.00,0.43
6931.00,0.43
6930.00,0.43
6929.00,0.43
6928.00,0.43
6927.00,0.43
6926.00,0.43
6925.00,0.43
6924.00,0.43
6923.00,0.43
6922.00,0.43
6921.00,0.43
6920.00,0.43
6919.00,0.43
6918.00,0.43
6917.00,0.43
6916.00,0.43
6915.00,0.43
6914.00,0.43
6913.00,0.42
6912.00,0.42
6911.00,0.42
6910.00,0.42
6909.00,0.42
6908.00,0.42
6907.00,0.42
6906.00,0.42
6905.00,0.42
6904.00,0.42
6903.00,0.42
6902.00,0.42
6901.00,0.43
6900.00,0.43
6899.00,0.43
6898.00,0.43
6897.00,0.43
6896.00,0.43
6895.00,0.43
6894.00,0.43
6893.00,0.43
6892.00,0.43
6891.00,0.43
6890.00,0.43
6889.00,0.43
6888.00,0.43
6887.00,0.43
6886.00,0.43
6885.00,0.43
6884.00,0.43
6883.00,0.43
6882.00,0.43
6881.00,0.43
6880.00,0.42
6879.00,0.42
6878.00,0.42
6877.00,0.42
6876.00,0.42
6875.00,0.42
6874.00,0.42
6873.00,0.42
6872.00,0.42
6871.00,0.42
6870.00,0.42
6869.00,0.42
6868.00,0.42
6867.00,0.42
6866.00,0.42
6865.00,0.42
6864.00,0.42
6863.00,0.42
6862.00,0.42
6861.00,0.42
6860.00,0.42
6859.00,0.42
6858.00,0.42
6857.00,0.42
6856.00,0.42
6855.00,0.42
6854.00,0.42
6853.00,0.42
6852.00,0.42
6851.00,0.42
6850.00,0.42
6849.00,0.42
6848.00,0.42
6847.00,0.42
6846.00,0.42
6845.00,0.42
6844.00,0.42
6843.00,0.42
6842.00,0.42
6841.00,0.42
6840.00,0.42
6839.00,0.42
6838.00,0.42
6837.00,0.42
6836.00,0.42
6835.00,0.42
6834.00,0.42
6833.00,0.42
6832.00,0.42
6831.00,0.42
6830.00,0.42
6829.00,0.42
6828.00,0.42
6827.00,0.42
6826.00,0.42
6825.00,0.42
6824.00,0.42
6823.00,0.42
6822.00,0.42
6821.00,0.42
6820.00,0.42
6819.00,0.42
6818.00,0.42
6817.00,0.42
6816.00,0.42
6815.00,0.42
6814.00,0.42
6813.00,0.42
6812.00,0.42
6811.00,0.42
6810.00,0.42
6809.00,0.42
6808.00,0.42
6807.00,0.42
6806.00,0.42
6805.00,0.42
6804.00,0.43
6803.00,0.43
6802.00,0.43
6801.00,0.43
6800.00,0.43
6799.00,0.43
6798.00,0.43
6797.00,0.43
6796.00,0.43
6795.00,0.44
6794.00,0.44
6793.00,0.44
6792.00,0.44
6791.00,0.44
6790.00,0.44
6789.00,0.44
6788.00,0.44
6787.00,0.44
6786.00,0.44
6785.00,0.44
6784.00,0.44
6783.00,0.44
6782.00,0.44
6781.00,0.44
6780.00,0.44
6779.00,0.44
6778.00,0.44
6777.00,0.44
6776.00,0.44
6775.00,0.44
6774.00,0.44
6773.00,0.44
6772.00,0.44
6771.00,0.44
6770.00,0.44
6769.00,0.44
6768.00,0.44
6767.00,0.44
6766.00,0.44
6765.00,0.44
6764.00,0.44
6763.00,0.44
6762.00,0.44
6761.00,0.44
6760.00,0.44
6759.00,0.44
6758.00,0.44
6757.00,0.44
6756.00,0.44
6755.00,0.44
6754.00,0.44
6753.00,0.44
6752.00,0.44
6751.00,0.45
6750.00,0.45
6749.00,0.45
6748.00,0.45
6747.00,0.45
6746.00,0.45
6745.00,0.45
6744.00,0.45
6743.00,0.45
6742.00,0.45
6741.00,0.45
6740.00,0.45
6739.00,0.46
6738.00,0.46
6737.00,0.46
6736.00,0.46
6735.00,0.46
6734.00,0.46
6733.00,0.46
6732.00,0.46
6731.00,0.46
6730.00,0.46
6729.00,0.46
6728.00,0.46
6727.00,0.46
6726.00,0.46
6725.00,0.46
6724.00,0.46
6723.00,0.46
6722.00,0.46
6721.00,0.46
6720.00,0.46
6719.00,0.46
6718.00,0.46
6717.00,0.46
6716.00,0.46
6715.00,0.46
6714.00,0.46
6713.00,0.46
6712.00,0.46
6711.00,0.46
6710.00,0.46
6709.00,0.46
6708.00,0.46
6707.00,0.46
6706.00,0.46
6705.00,0.46
6704.00,0.46
6703.00,0.46
6702.00,0.46
6701.00,0.46
6700.00,0.47
6699.00,0.47
6698.00,0.47
6697.00,0.47
6696.00,0.47
6695.00,0.47
6694.00,0.47
6693.00,0.47
6692.00,0.47
6691.00,0.47
6690.00,0.47
6689.00,0.47
6688.00,0.47
6687.00,0.47
6686.00,0.47
6685.00,0.47
6684.00,0.47
6683.00,0.47
6682.00,0.48
6681.00,0.48
6680.00,0.48
6679.00,0.48
6678.00,0.48
6677.00,0.48
6676.00,0.48
6675.00,0.48
6674.00,0.48
6673.00,0.48
6672.00,0.49
6671.00,0.49
6670.00,0.49
6669.00,0.49
6668.00,0.49
6667.00,0.49
6666.00,0.49
6665.00,0.49
6664.00,0.49
6663.00,0.49
6662.00,0.49
6661.00,0.50
6660.00,0.50
6659.00,0.50
6658.00,0.50
6657.00,0.50
6656.00,0.50
6655.00,0.50
6654.00,0.50
6653.00,0.50
6652.00,0.50
6651.00,0.50
6650.00,0.50
6649.00,0.50
6648.00,0.50
6647.00,0.50
6646.00,0.50
6645.00,0.50
6644.00,0.50
6643.00,0.50
6642.00,0.50
6641.00,0.50
6640.00,0.50
6639.00,0.50
6638.00,0.50
6637.00,0.50
6636.00,0.50
6635.00,0.50
6634.00,0.51
6633.00,0.51
6632.00,0.51
6631.00,0.51
6630.00,0.51
6629.00,0.51
6628.00,0.51
6627.00,0.51
6626.00,0.51
6625.00,0.52
6624.00,0.52
6623.00,0.52
6622.00,0.52
6621.00,0.52
6620.00,0.52
6619.00,0.52
6618.00,0.52
6617.00,0.52
6616.00,0.52
6615.00,0.52
6614.00,0.52
6613.00,0.52
6612.00,0.53
6611.00,0.53
6610.00,0.53
6609.00,0.53
6608.00,0.53
6607.00,0.53
6606.00,0.53
6605.00,0.53
6604.00,0.53
6603.00,0.53
6602.00,0.53
6601.00,0.53
6600.00,0.53
6599.00,0.53
6598.00,0.53
6597.00,0.53
6596.00,0.53
6595.00,0.53
6594.00,0.53
6593.00,0.53
6592.00,0.54
6591.00,0.54
6590.00,0.54
6589.00,0.54
6588.00,0.54
6587.00,0.54
6586.00,0.54
6585.00,0.54
6584.00,0.54
6583.00,0.54
6582.00,0.54
6581.00,0.54
6580.00,0.54
6579.00,0.54
6578.00,0.54
6577.00,0.55
6576.00,0.55
6575.00,0.55
6574.00,0.55
6573.00,0.55
6572.00,0.55
6571.00,0.55
6570.00,0.55
6569.00,0.55
6568.00,0.55
6567.00,0.55
6566.00,0.55
6565.00,0.55
6564.00,0.55
6563.00,0.55
6562.00,0.55
6561.00,0.55
6560.00,0.55
6559.00,0.55
6558.00,0.55
6557.00,0.55
6556.00,0.56
6555.00,0.56
6554.00,0.56
6553.00,0.56
6552.00,0.56
6551.00,0.56
6550.00,0.56
6549.00,0.56
6548.00,0.56
6547.00,0.56
6546.00,0.56
6545.00,0.56
6544.00,0.56
6543.00,0.56
6542.00,0.56
6541.00,0.56
6540.00,0.56
6539.00,0.57
6538.00,0.57
6537.00,0.57
6536.00,0.57
6535.00,0.57
6534.00,0.57
6533.00,0.57
6532.00,0.57
6531.00,0.57
6530.00,0.57
6529.00,0.57
6528.00,0.57
6527.00,0.57
6526.00,0.57
6525.00,0.57
6524.00,0.57
6523.00,0.57
6522.00,0.57
6521.00,0.57
6520.00,0.57
6519.00,0.57
6518.00,0.58
6517.00,0.58
6516.00,0.58
6515.00,0.58
6514.00,0.58
6513.00,0.58
6512.00,0.58
6511.00,0.58
6510.00,0.58
6509.00,0.58
6508.00,0.58
6507.00,0.58
6506.00,0.58
6505.00,0.58
6504.00,0.58
6503.00,0.58
6502.00,0.58
6501.00,0.58
6500.00,0.58
6499.00,0.58
6498.00,0.58
6497.00,0.58
6496.00,0.58
6495.00,0.58
6494.00,0.58
6493.00,0.58
6492.00,0.58
6491.00,0.58
6490.00,0.58
6489.00,0.58
6488.00,0.59
6487.00,0.59
6486.00,0.59
6485.00,0.59
6484.00,0.59
6483.00,0.59
6482.00,0.59
6481.00,0.59
6480.00,0.59
6479.00,0.59
6478.00,0.59
6477.00,0.59
6476.00,0.59
6475.00,0.59
6474.00,0.59
6473.00,0.59
6472.00,0.59
6471.00,0.59
6470.00,0.59
6469.00,0.60
6468.00,0.60
6467.00,0.60
6466.00,0.60
6465.00,0.60
6464.00,0.60
6463.00,0.60
6462.00,0.60
6461.00,0.60
6460.00,0.60
6459.00,0.60
6458.00,0.60
6457.00,0.60
6456.00,0.60
6455.00,0.60
6454.00,0.60
6453.00,0.60
6452.00,0.60
6451.00,0.60
6450.00,0.60
6449.00,0.60
6448.00,0.60
6447.00,0.60
6446.00,0.60
6445.00,0.60
6444.00,0.60
6443.00,0.60
6442.00,0.60
6441.00,0.60
6440.00,0.60
6439.00,0.60
6438.00,0.60
6437.00,0.60
6436.00,0.60
6435.00,0.61
6434.00,0.61
6433.00,0.61
6432.00,0.61
6431.00,0.61
6430.00,0.61
6429.00,0.61
6428.00,0.61
6427.00,0.61
6426.00,0.61
6425.00,0.61
6424.00,0.61
6423.00,0.61
6422.00,0.61
6421.00,0.61
6420.00,0.61
6419.00,0.61
6418.00,0.61
6417.00,0.62
6416.00,0.62
6415.00,0.62
6414.00,0.62
6413.00,0.62
6412.00,0.62
6411.00,0.62
6410.00,0.62
6409.00,0.62
6408.00,0.62
6407.00,0.62
6406.00,0.62
6405.00,0.62
6404.00,0.62
6403.00,0.62
6402.00,0.62
6401.00,0.62
6400.00,0.62
6399.00,0.62
6398.00,0.62
6397.00,0.62
6396.00,0.62
6395.00,0.62
6394.00,0.62
6393.00,0.62
6392.00,0.62
6391.00,0.62
6390.00,0.62
6389.00,0.62
6388.00,0.62
6387.00,0.62
6386.00,0.62
6385.00,0.62
6384.00,0.62
6383.00,0.62
6382.00,0.62
6381.00,0.63
6380.00,0.63
6379.00,0.63
6378.00,0.63
6377.00,0.63
6376.00,0.63
6375.00,0.63
6374.00,0.63
6373.00,0.63
6372.00,0.63
6371.00,0.63
6370.00,0.63
6369.00,0.63
6368.00,0.63
6367.00,0.63
6366.00,0.63
6365.00,0.64
6364.00,0.64
6363.00,0.64
6362.00,0.64
6361.00,0.64
6360.00,0.64
6359.00,0.64
6358.00,0.64
6357.00,0.64
6356.00,0.64
6355.00,0.64
6354.00,0.64
6353.00,0.64
6352.00,0.64
6351.00,0.64
6350.00,0.64
6349.00,0.65
6348.00,0.65
6347.00,0.65
6346.00,0.65
6345.00,0.65
6344.00,0.65
6343.00,0.65
6342.00,0.65
6341.00,0.65
6340.00,0.65
6339.00,0.65
6338.00,0.65
6337.00,0.65
6336.00,0.65
6335.00,0.65
6334.00,0.65
6333.00,0.65
6332.00,0.65
6331.00,0.65
6330.00,0.65
6329.00,0.65
6328.00,0.65
6327.00,0.65
6326.00,0.65
6325.00,0.65
6324.00,0.66
6323.00,0.66
6322.00,0.66
6321.00,0.66
6320.00,0.66
6319.00,0.66
6318.00,0.66
6317.00,0.66
6316.00,0.66
6315.00,0.66
6314.00,0.66
6313.00,0.67
6312.00,0.67
6311.00,0.67
6310.00,0.67
6309.00,0.67
6308.00,0.67
6307.00,0.67
6306.00,0.67
6305.00,0.67
6304.00,0.67
6303.00,0.67
6302.00,0.67
6301.00,0.67
6300.00,0.67
6299.00,0.67
6298.00,0.67
6297.00,0.67
6296.00,0.67
6295.00,0.67
6294.00,0.67
6293.00,0.67
6292.00,0.67
6291.00,0.68
6290.00,0.68
6289.00,0.68
6288.00,0.68
6287.00,0.68
6286.00,0.68
6285.00,0.68
6284.00,0.68
6283.00,0.68
6282.00,0.68
6281.00,0.68
6280.00,0.68
6279.00,0.68
6278.00,0.69
6277.00,0.69
6276.00,0.69
6275.00,0.69
6274.00,0.69
6273.00,0.69
6272.00,0.69
6271.00,0.69
6270.00,0.69
6269.00,0.69
6268.00,0.69
6267.00,0.69
6266.00,0.69
6265.00,0.70
6264.00,0.70
6263.00,0.70
6262.00,0.70
6261.00,0.70
6260.00,0.70
6259.00,0.70
6258.00,0.70
6257.00,0.70
6256.00,0.70
6255.00,0.70
6254.00,0.70
6253.00,0.70
6252.00,0.70
6251.00,0.70
6250.00,0.71
6249.00,0.71
6248.00,0.71
6247.00,0.71
6246.00,0.71
6245.00,0.71
6244.00,0.71
6243.00,0.71
6242.00,0.71
6241.00,0.71
6240.00,0.71
6239.00,0.71
6238.00,0.71
6237.00,0.72
6236.00,0.72
6235.00,0.72
6234.00,0.72
6233.00,0.72
6232.00,0.72
6231.00,0.72
6230.00,0.72
6229.00,0.72
6228.00,0.72
6227.00,0.72
6226.00,0.72
6225.00,0.72
6224.00,0.72
6223.00,0.72
6222.00,0.72
6221.00,0.73
6220.00,0.73
6219.00,0.73
6218.00,0.73
6217.00,0.73
6216.00,0.73
6215.00,0.73
6214.00,0.73
6213.00,0.73
6212.00,0.73
6211.00,0.73
6210.00,0.73
6209.00,0.73
6208.00,0.74
6207.00,0.74
6206.00,0.74
6205.00,0.74
6204.00,0.74
6203.00,0.74
6202.00,0.74
6201.00,0.74
6200.00,0.74
6199.00,0.75
6198.00,0.75
6197.00,0.75
6196.00,0.75
6195.00,0.75
6194.00,0.75
6193.00,0.75
6192.00,0.75
6191.00,0.75
6190.00,0.76
6189.00,0.76
6188.00,0.76
6187.00,0.76
6186.00,0.76
6185.00,0.76
6184.00,0.76
6183.00,0.76
6182.00,0.76
6181.00,0.76
6180.00,0.76
6179.00,0.77
6178.00,0.77
6177.00,0.77
6176.00,0.77
6175.00,0.77
6174.00,0.77
6173.00,0.77
6172.00,0.77
6171.00,0.77
6170.00,0.77
6169.00,0.77
6168.00,0.77
6167.00,0.77
6166.00,0.78
6165.00,0.78
6164.00,0.78
6163.00,0.78
6162.00,0.78
6161.00,0.78
6160.00,0.78
6159.00,0.78
6158.00,0.78
6157.00,0.78
6156.00,0.79
6155.00,0.79
6154.00,0.79
6153.00,0.79
6152.00,0.79
6151.00,0.79
6150.00,0.79
6149.00,0.79
6148.00,0.80
6147.00,0.80
6146.00,0.80
6145.00,0.80
6144.00,0.80
6143.00,0.80
6142.00,0.80
6141.00,0.80
6140.00,0.80
6139.00,0.80
6138.00,0.80
6137.00,0.81
6136.00,0.81
6135.00,0.81
6134.00,0.81
6133.00,0.81
6132.00,0.81
6131.00,0.81
6130.00,0.81
6129.00,0.81
6128.00,0.81
6127.00,0.81
6126.00,0.81
6125.00,0.82
6124.00,0.82
6123.00,0.82
6122.00,0.82
6121.00,0.82
6120.00,0.82
6119.00,0.82
6118.00,0.82
6117.00,0.82
6116.00,0.82
6115.00,0.82
6114.00,0.82
6113.00,0.83
6112.00,0.83
6111.00,0.83
6110.00,0.83
6109.00,0.83
6108.00,0.83
6107.00,0.83
6106.00,0.83
6105.00,0.83
6104.00,0.83
6103.00,0.83
6102.00,0.83
6101.00,0.83
6100.00,0.83
6099.00,0.83
6098.00,0.84
6097.00,0.84
6096.00,0.84
6095.00,0.84
6094.00,0.84
6093.00,0.84
6092.00,0.84
6091.00,0.84
6090.00,0.84
6089.00,0.85
6088.00,0.85
6087.00,0.85
6086.00,0.85
6085.00,0.85
6084.00,0.85
6083.00,0.85
6082.00,0.85
6081.00,0.85
6080.00,0.86
6079.00,0.86
6078.00,0.86
6077.00,0.86
6076.00,0.86
6075.00,0.86
6074.00,0.86
6073.00,0.86
6072.00,0.86
6071.00,0.86
6070.00,0.86
6069.00,0.86
6068.00,0.86
6067.00,0.87
6066.00,0.87
6065.00,0.87
6064.00,0.87
6063.00,0.87
6062.00,0.87
6061.00,0.87
6060.00,0.87
6059.00,0.87
6058.00,0.87
6057.00,0.87
6056.00,0.87
6055.00,0.87
6054.00,0.87
6053.00,0.87
6052.00,0.87
6051.00,0.87
6050.00,0.87
6049.00,0.87
6048.00,0.87
6047.00,0.87
6046.00,0.87
6045.00,0.87
6044.00,0.87
6043.00,0.87
6042.00,0.87
6041.00,0.88
6040.00,0.88
6039.00,0.88
6038.00,0.88
6037.00,0.88
6036.00,0.88
6035.00,0.88
6034.00,0.88
6033.00,0.88
6032.00,0.88
6031.00,0.88
6030.00,0.88
6029.00,0.88
6028.00,0.88
6027.00,0.88
6026.00,0.88
6025.00,0.88
6024.00,0.88
6023.00,0.88
6022.00,0.88
6021.00,0.88
6020.00,0.88
6019.00,0.88
6018.00,0.88
6017.00,0.88
6016.00,0.88
6015.00,0.88
6014.00,0.88
6013.00,0.88
6012.00,0.88
6011.00,0.88
6010.00,0.88
6009.00,0.88
6008.00,0.88
6007.00,0.88
6006.00,0.88
6005.00,0.88
6004.00,0.88
6003.00,0.88
6002.00,0.88
6001.00,0.88
6000.00,0.88
5999.00,0.88
5998.00,0.88
5997.00,0.88
5996.00,0.88
5995.00,0.88
5994.00,0.88
5993.00,0.88
5992.00,0.88
5991.00,0.87
5990.00,0.87
5989.00,0.87
5988.00,0.87
5987.00,0.87
5986.00,0.87
5985.00,0.87
5984.00,0.87
5983.00,0.86
5982.00,0.86
5981.00,0.86
5980.00,0.86
5979.00,0.86
5978.00,0.85
5977.00,0.85
5976.00,0.85
5975.00,0.84
5974.00,0.84
5973.00,0.84
5972.00,0.83
5971.00,0.83
5970.00,0.82
5969.00,0.82
5968.00,0.82
5967.00,0.81
5966.00,0.81
5965.00,0.80
5964.00,0.80
5963.00,0.79
5962.00,0.79
5961.00,0.78
5960.00,0.78
5959.00,0.77
5958.00,0.77
5957.00,0.76
5956.00,0.76
5955.00,0.76
5954.00,0.75
5953.00,0.75
5952.00,0.74
5951.00,0.74
5950.00,0.74
5949.00,0.73
5948.00,0.73
5947.00,0.73
5946.00,0.73
5945.00,0.72
5944.00,0.72
5943.00,0.72
5942.00,0.72
5941.00,0.72
5940.00,0.71
5939.00,0.71
5938.00,0.71
5937.00,0.71
5936.00,0.71
5935.00,0.71
5934.00,0.71
5933.00,0.71
5932.00,0.71
5931.00,0.71
5930.00,0.71
5929.00,0.71
5928.00,0.70
5927.00,0.70
5926.00,0.70
5925.00,0.70
5924.00,0.70
5923.00,0.70
5922.00,0.70
5921.00,0.69
5920.00,0.69
5919.00,0.69
5918.00,0.69
5917.00,0.69
5916.00,0.68
5915.00,0.68
5914.00,0.68
5913.00,0.68
5912.00,0.68
5911.00,0.68
5910.00,0.67
5909.00,0.67
5908.00,0.67
5907.00,0.67
5906.00,0.67
5905.00,0.67
5904.00,0.67
5903.00,0.67
5902.00,0.67
5901.00,0.67
5900.00,0.67
5899.00,0.67
5898.00,0.67
5897.00,0.67
5896.00,0.67
5895.00,0.68
5894.00,0.68
5893.00,0.68
5892.00,0.68
5891.00,0.68
5890.00,0.68
5889.00,0.68
5888.00,0.69
5887.00,0.69
5886.00,0.69
5885.00,0.69
5884.00,0.69
5883.00,0.70
5882.00,0.70
5881.00,0.70
5880.00,0.70
5879.00,0.70
5878.00,0.71
5877.00,0.71
5876.00,0.71
5875.00,0.71
5874.00,0.71
5873.00,0.71
5872.00,0.71
5871.00,0.72
5870.00,0.72
5869.00,0.72
5868.00,0.72
5867.00,0.72
5866.00,0.72
5865.00,0.72
5864.00,0.72
5863.00,0.72
5862.00,0.72
5861.00,0.72
5860.00,0.73
5859.00,0.73
5858.00,0.73
5857.00,0.73
5856.00,0.73
5855.00,0.73
5854.00,0.73
5853.00,0.73
5852.00,0.73
5851.00,0.73
5850.00,0.73
5849.00,0.73
5848.00,0.73
5847.00,0.73
5846.00,0.74
5845.00,0.74
5844.00,0.74
5843.00,0.74
5842.00,0.74
5841.00,0.74
5840.00,0.74
5839.00,0.74
5838.00,0.74
5837.00,0.74
5836.00,0.74
5835.00,0.74
5834.00,0.74
5833.00,0.74
5832.00,0.74
5831.00,0.74
5830.00,0.74
5829.00,0.74
5828.00,0.74
5827.00,0.74
5826.00,0.74
5825.00,0.74
5824.00,0.74
5823.00,0.74
5822.00,0.74
5821.00,0.74
5820.00,0.74
5819.00,0.74
5818.00,0.74
5817.00,0.74
5816.00,0.74
5815.00,0.74
5814.00,0.74
5813.00,0.74
5812.00,0.74
5811.00,0.74
5810.00,0.74
5809.00,0.74
5808.00,0.74
5807.00,0.74
5806.00,0.74
5805.00,0.74
5804.00,0.74
5803.00,0.74
5802.00,0.74
5801.00,0.74
5800.00,0.74
5799.00,0.73
5798.00,0.73
5797.00,0.73
5796.00,0.73
5795.00,0.73
5794.00,0.73
5793.00,0.73
5792.00,0.73
5791.00,0.72
5790.00,0.72
5789.00,0.72
5788.00,0.72
5787.00,0.72
5786.00,0.72
5785.00,0.71
5784.00,0.71
5783.00,0.71
5782.00,0.71
5781.00,0.71
5780.00,0.71
5779.00,0.71
5778.00,0.71
5777.00,0.71
5776.00,0.71
5775.00,0.71
5774.00,0.71
5773.00,0.71
5772.00,0.71
5771.00,0.71
5770.00,0.71
5769.00,0.71
5768.00,0.71
5767.00,0.71
5766.00,0.71
5765.00,0.71
5764.00,0.71
5763.00,0.72
5762.00,0.72
5761.00,0.72
5760.00,0.72
5759.00,0.72
5758.00,0.72
5757.00,0.73
5756.00,0.73
5755.00,0.73
5754.00,0.73
5753.00,0.73
5752.00,0.74
5751.00,0.74
5750.00,0.74
5749.00,0.75
5748.00,0.75
5747.00,0.75
5746.00,0.75
5745.00,0.76
5744.00,0.76
5743.00,0.76
5742.00,0.76
5741.00,0.76
5740.00,0.77
5739.00,0.77
5738.00,0.77
5737.00,0.77
5736.00,0.77
5735.00,0.78
5734.00,0.78
5733.00,0.78
5732.00,0.78
5731.00,0.78
5730.00,0.78
5729.00,0.78
5728.00,0.78
5727.00,0.78
5726.00,0.78
5725.00,0.78
5724.00,0.78
5723.00,0.78
5722.00,0.79
5721.00,0.79
5720.00,0.79
5719.00,0.79
5718.00,0.79
5717.00,0.79
5716.00,0.79
5715.00,0.79
5714.00,0.79
5713.00,0.79
5712.00,0.79
5711.00,0.79
5710.00,0.79
5709.00,0.79
5708.00,0.79
5707.00,0.78
5706.00,0.78
5705.00,0.78
5704.00,0.78
5703.00,0.78
5702.00,0.78
5701.00,0.78
5700.00,0.78
5699.00,0.78
5698.00,0.78
5697.00,0.78
5696.00,0.78
5695.00,0.77
5694.00,0.77
5693.00,0.77
5692.00,0.77
5691.00,0.77
5690.00,0.77
5689.00,0.77
5688.00,0.77
5687.00,0.77
5686.00,0.77
5685.00,0.76
5684.00,0.76
5683.00,0.76
5682.00,0.76
5681.00,0.76
5680.00,0.76
5679.00,0.76
5678.00,0.76
5677.00,0.76
5676.00,0.76
5675.00,0.76
5674.00,0.76
5673.00,0.76
5672.00,0.76
5671.00,0.76
5670.00,0.76
5669.00,0.76
5668.00,0.76
5667.00,0.77
5666.00,0.77
5665.00,0.77
5664.00,0.77
5663.00,0.77
5662.00,0.77
5661.00,0.77
5660.00,0.77
5659.00,0.77
5658.00,0.77
5657.00,0.78
5656.00,0.78
5655.00,0.78
5654.00,0.78
5653.00,0.78
5652.00,0.78
5651.00,0.78
5650.00,0.78
5649.00,0.78
5648.00,0.78
5647.00,0.78
5646.00,0.79
5645.00,0.79
5644.00,0.79
5643.00,0.79
5642.00,0.79
5641.00,0.79
5640.00,0.79
5639.00,0.79
5638.00,0.79
5637.00,0.80
5636.00,0.80
5635.00,0.80
5634.00,0.80
5633.00,0.80
5632.00,0.80
5631.00,0.80
5630.00,0.81
5629.00,0.81
5628.00,0.81
5627.00,0.81
5626.00,0.81
5625.00,0.81
5624.00,0.81
5623.00,0.82
5622.00,0.82
5621.00,0.82
5620.00,0.82
5619.00,0.82
5618.00,0.82
5617.00,0.82
5616.00,0.83
5615.00,0.83
5614.00,0.83
5613.00,0.83
5612.00,0.83
5611.00,0.83
5610.00,0.83
5609.00,0.84
5608.00,0.84
5607.00,0.84
5606.00,0.84
5605.00,0.84
5604.00,0.84
5603.00,0.84
5602.00,0.84
5601.00,0.84
5600.00,0.84
5599.00,0.85
5598.00,0.85
5597.00,0.85
5596.00,0.85
5595.00,0.85
5594.00,0.85
5593.00,0.85
5592.00,0.85
5591.00,0.85
5590.00,0.85
5589.00,0.85
5588.00,0.86
5587.00,0.86
5586.00,0.86
5585.00,0.86
5584.00,0.86
5583.00,0.86
5582.00,0.86
5581.00,0.86
5580.00,0.86
5579.00,0.86
5578.00,0.87
5577.00,0.87
5576.00,0.87
5575.00,0.87
5574.00,0.87
5573.00,0.87
5572.00,0.87
5571.00,0.87
5570.00,0.87
5569.00,0.87
5568.00,0.88
5567.00,0.88
5566.00,0.88
5565.00,0.88
5564.00,0.88
5563.00,0.88
5562.00,0.88
5561.00,0.88
5560.00,0.88
5559.00,0.88
5558.00,0.88
5557.00,0.88
5556.00,0.88
5555.00,0.89
5554.00,0.89
5553.00,0.89
5552.00,0.89
5551.00,0.89
5550.00,0.89
5549.00,0.89
5548.00,0.89
5547.00,0.89
5546.00,0.89
5545.00,0.89
5544.00,0.89
5543.00,0.89
5542.00,0.89
5541.00,0.89
5540.00,0.90
5539.00,0.90
5538.00,0.90
5537.00,0.90
5536.00,0.90
5535.00,0.90
5534.00,0.90
5533.00,0.90
5532.00,0.90
5531.00,0.90
5530.00,0.91
5529.00,0.91
5528.00,0.91
5527.00,0.91
5526.00,0.91
5525.00,0.91
5524.00,0.91
5523.00,0.91
5522.00,0.91
5521.00,0.91
5520.00,0.91
5519.00,0.91
5518.00,0.91
5517.00,0.91
5516.00,0.91
5515.00,0.91
5514.00,0.91
5513.00,0.91
5512.00,0.91
5511.00,0.91
5510.00,0.91
5509.00,0.91
5508.00,0.91
5507.00,0.91
5506.00,0.91
5505.00,0.91
5504.00,0.91
5503.00,0.91
5502.00,0.92
5501.00,0.92
5500.00,0.92
5499.00,0.92
5498.00,0.92
5497.00,0.92
5496.00,0.92
5495.00,0.92
5494.00,0.92
5493.00,0.92
5492.00,0.92
5491.00,0.92
5490.00,0.92
5489.00,0.92
5488.00,0.92
5487.00,0.92
5486.00,0.93
5485.00,0.93
5484.00,0.93
5483.00,0.93
5482.00,0.93
5481.00,0.93
5480.00,0.93
5479.00,0.93
5478.00,0.93
5477.00,0.93
5476.00,0.93
5475.00,0.93
5474.00,0.93
5473.00,0.93
5472.00,0.93
5471.00,0.94
5470.00,0.94
5469.00,0.94
5468.00,0.94
5467.00,0.94
5466.00,0.94
5465.00,0.94
5464.00,0.94
5463.00,0.94
5462.00,0.94
5461.00,0.95
5460.00,0.95
5459.00,0.95
5458.00,0.95
5457.00,0.95
5456.00,0.95
5455.00,0.95
5454.00,0.95
5453.00,0.95
5452.00,0.95
5451.00,0.95
5450.00,0.95
5449.00,0.95
5448.00,0.95
5447.00,0.95
5446.00,0.95
5445.00,0.95
5444.00,0.95
5443.00,0.95
5442.00,0.95
5441.00,0.95
5440.00,0.95
5439.00,0.95
5438.00,0.95
5437.00,0.95
5436.00,0.95
5435.00,0.95
5434.00,0.95
5433.00,0.95
5432.00,0.95
5431.00,0.95
5430.00,0.95
5429.00,0.95
5428.00,0.95
5427.00,0.95
5426.00,0.95
5425.00,0.95
5424.00,0.95
5423.00,0.95
5422.00,0.95
5421.00,0.95
5420.00,0.95
5419.00,0.95
5418.00,0.95
5417.00,0.95
5416.00,0.95
5415.00,0.95
5414.00,0.95
5413.00,0.95
5412.00,0.95
5411.00,0.95
5410.00,0.95
5409.00,0.95
5408.00,0.95
5407.00,0.95
5406.00,0.95
5405.00,0.95
5404.00,0.95
5403.00,0.96
5402.00,0.96
5401.00,0.96
5400.00,0.96
5399.00,0.96
5398.00,0.96
5397.00,0.96
5396.00,0.96
5395.00,0.96
5394.00,0.95
5393.00,0.95
5392.00,0.95
5391.00,0.95
5390.00,0.95
5389.00,0.95
5388.00,0.95
5387.00,0.95
5386.00,0.95
5385.00,0.94
5384.00,0.94
5383.00,0.94
5382.00,0.94
5381.00,0.94
5380.00,0.94
5379.00,0.93
5378.00,0.93
5377.00,0.93
5376.00,0.93
5375.00,0.93
5374.00,0.92
5373.00,0.92
5372.00,0.92
5371.00,0.92
5370.00,0.91
5369.00,0.91
5368.00,0.91
5367.00,0.90
5366.00,0.90
5365.00,0.90
5364.00,0.89
5363.00,0.89
5362.00,0.88
5361.00,0.88
5360.00,0.88
5359.00,0.87
5358.00,0.87
5357.00,0.86
5356.00,0.86
5355.00,0.85
5354.00,0.85
5353.00,0.84
5352.00,0.83
5351.00,0.83
5350.00,0.82
5349.00,0.82
5348.00,0.81
5347.00,0.80
5346.00,0.80
5345.00,0.79
5344.00,0.79
5343.00,0.78
5342.00,0.77
5341.00,0.77
5340.00,0.76
5339.00,0.76
5338.00,0.75
5337.00,0.74
5336.00,0.74
5335.00,0.73
5334.00,0.73
5333.00,0.72
5332.00,0.72
5331.00,0.71
5330.00,0.70
5329.00,0.70
5328.00,0.69
5327.00,0.69
5326.00,0.68
5325.00,0.67
5324.00,0.67
5323.00,0.66
5322.00,0.65
5321.00,0.65
5320.00,0.64
5319.00,0.63
5318.00,0.63
5317.00,0.62
5316.00,0.62
5315.00,0.61
5314.00,0.60
5313.00,0.60
5312.00,0.59
5311.00,0.58
5310.00,0.58
5309.00,0.57
5308.00,0.57
5307.00,0.56
5306.00,0.56
5305.00,0.55
5304.00,0.55
5303.00,0.54
5302.00,0.54
5301.00,0.54
5300.00,0.53
5299.00,0.53
5298.00,0.53
5297.00,0.52
5296.00,0.52
5295.00,0.52
5294.00,0.52
5293.00,0.52
5292.00,0.51
5291.00,0.51
5290.00,0.51
5289.00,0.51
5288.00,0.51
5287.00,0.51
5286.00,0.50
5285.00,0.50
5284.00,0.50
5283.00,0.50
5282.00,0.50
5281.00,0.50
5280.00,0.50
5279.00,0.50
5278.00,0.50
5277.00,0.49
5276.00,0.49
5275.00,0.49
5274.00,0.49
5273.00,0.49
5272.00,0.49
5271.00,0.49
5270.00,0.49
5269.00,0.49
5268.00,0.49
5267.00,0.48
5266.00,0.48
5265.00,0.48
5264.00,0.48
5263.00,0.48
5262.00,0.48
5261.00,0.48
5260.00,0.48
5259.00,0.48
5258.00,0.48
5257.00,0.48
5256.00,0.48
5255.00,0.48
5254.00,0.48
5253.00,0.48
5252.00,0.48
5251.00,0.48
5250.00,0.48
5249.00,0.48
5248.00,0.48
5247.00,0.48
5246.00,0.48
5245.00,0.48
5244.00,0.48
5243.00,0.48
5242.00,0.48
5241.00,0.48
5240.00,0.48
5239.00,0.48
5238.00,0.48
5237.00,0.49
5236.00,0.49
5235.00,0.49
5234.00,0.49
5233.00,0.49
5232.00,0.49
5231.00,0.49
5230.00,0.49
5229.00,0.49
5228.00,0.49
5227.00,0.49
5226.00,0.49
5225.00,0.49
5224.00,0.49
5223.00,0.49
5222.00,0.49
5221.00,0.49
5220.00,0.49
5219.00,0.49
5218.00,0.49
5217.00,0.49
5216.00,0.49
5215.00,0.49
5214.00,0.49
5213.00,0.49
5212.00,0.49
5211.00,0.49
5210.00,0.49
5209.00,0.49
5208.00,0.49
5207.00,0.49
5206.00,0.49
5205.00,0.49
5204.00,0.49
5203.00,0.49
5202.00,0.49
5201.00,0.49
5200.00,0.49
5199.00,0.49
5198.00,0.49
5197.00,0.49
5196.00,0.49
5195.00,0.49
5194.00,0.49
5193.00,0.49
5192.00,0.49
5191.00,0.49
5190.00,0.49
5189.00,0.49
5188.00,0.49
5187.00,0.49
5186.00,0.50
5185.00,0.50
5184.00,0.50
5183.00,0.50
5182.00,0.50
5181.00,0.50
5180.00,0.50
5179.00,0.50
5178.00,0.50
5177.00,0.50
5176.00,0.50
5175.00,0.50
5174.00,0.50
5173.00,0.50
5172.00,0.50
5171.00,0.50
5170.00,0.50
5169.00,0.50
5168.00,0.50
5167.00,0.50
5166.00,0.50
5165.00,0.50
5164.00,0.50
5163.00,0.50
5162.00,0.50
5161.00,0.50
5160.00,0.50
5159.00,0.50
5158.00,0.50
5157.00,0.51
5156.00,0.51
5155.00,0.51
5154.00,0.51
5153.00,0.51
5152.00,0.51
5151.00,0.51
5150.00,0.51
5149.00,0.51
5148.00,0.51
5147.00,0.51
5146.00,0.51
5145.00,0.51
5144.00,0.51
5143.00,0.51
5142.00,0.51
5141.00,0.51
5140.00,0.51
5139.00,0.51
5138.00,0.51
5137.00,0.51
5136.00,0.51
5135.00,0.51
5134.00,0.51
5133.00,0.51
5132.00,0.51
5131.00,0.51
5130.00,0.51
5129.00,0.52
5128.00,0.52
5127.00,0.52
5126.00,0.52
5125.00,0.52
5124.00,0.52
5123.00,0.52
5122.00,0.52
5121.00,0.52
5120.00,0.52
5119.00,0.52
5118.00,0.52
5117.00,0.52
5116.00,0.52
5115.00,0.52
5114.00,0.52
5113.00,0.52
5112.00,0.52
5111.00,0.52
5110.00,0.52
5109.00,0.52
5108.00,0.52
5107.00,0.52
5106.00,0.52
5105.00,0.53
5104.00,0.53
5103.00,0.53
5102.00,0.53
5101.00,0.53
5100.00,0.53
5099.00,0.53
5098.00,0.53
5097.00,0.53
5096.00,0.53
5095.00,0.53
5094.00,0.53
5093.00,0.53
5092.00,0.53
5091.00,0.53
5090.00,0.53
5089.00,0.53
5088.00,0.53
5087.00,0.53
5086.00,0.53
5085.00,0.53
5084.00,0.53
5083.00,0.53
5082.00,0.53
5081.00,0.53
5080.00,0.53
5079.00,0.53
5078.00,0.53
5077.00,0.53
5076.00,0.53
5075.00,0.54
5074.00,0.54
5073.00,0.54
5072.00,0.54
5071.00,0.54
5070.00,0.54
5069.00,0.54
5068.00,0.54
5067.00,0.54
5066.00,0.54
5065.00,0.54
5064.00,0.54
5063.00,0.54
5062.00,0.54
5061.00,0.54
5060.00,0.54
5059.00,0.54
5058.00,0.54
5057.00,0.54
5056.00,0.54
5055.00,0.54
5054.00,0.54
5053.00,0.54
5052.00,0.54
5051.00,0.54
5050.00,0.54
5049.00,0.54
5048.00,0.54
5047.00,0.54
5046.00,0.55
5045.00,0.55
5044.00,0.55
5043.00,0.55
5042.00,0.55
5041.00,0.55
5040.00,0.55
5039.00,0.55
5038.00,0.55
5037.00,0.55
5036.00,0.55
5035.00,0.55
5034.00,0.55
5033.00,0.55
5032.00,0.55
5031.00,0.55
5030.00,0.55
5029.00,0.55
5028.00,0.55
5027.00,0.55
5026.00,0.55
5025.00,0.55
5024.00,0.55
5023.00,0.55
5022.00,0.55
5021.00,0.55
5020.00,0.55
5019.00,0.55
5018.00,0.55
5017.00,0.56
5016.00,0.56
5015.00,0.56
5014.00,0.56
5013.00,0.56
5012.00,0.56
5011.00,0.56
5010.00,0.56
5009.00,0.56
5008.00,0.56
5007.00,0.56
5006.00,0.56
5005.00,0.56
5004.00,0.56
5003.00,0.56
5002.00,0.56
5001.00,0.56
5000.00,0.57
4999.00,0.57
4998.00,0.57
4997.00,0.57
4996.00,0.57
4995.00,0.57
4994.00,0.57
4993.00,0.57
4992.00,0.57
4991.00,0.57
4990.00,0.57
4989.00,0.57
4988.00,0.57
4987.00,0.57
4986.00,0.57
4985.00,0.57
4984.00,0.57
4983.00,0.57
4982.00,0.57
4981.00,0.57
4980.00,0.58
4979.00,0.58
4978.00,0.58
4977.00,0.58
4976.00,0.58
4975.00,0.58
4974.00,0.58
4973.00,0.58
4972.00,0.58
4971.00,0.58
4970.00,0.58
4969.00,0.58
4968.00,0.58
4967.00,0.59
4966.00,0.59
4965.00,0.59
4964.00,0.59
4963.00,0.59
4962.00,0.59
4961.00,0.59
4960.00,0.59
4959.00,0.59
4958.00,0.59
4957.00,0.59
4956.00,0.59
4955.00,0.59
4954.00,0.59
4953.00,0.59
4952.00,0.60
4951.00,0.60
4950.00,0.60
4949.00,0.60
4948.00,0.60
4947.00,0.60
4946.00,0.60
4945.00,0.60
4944.00,0.60
4943.00,0.60
4942.00,0.60
4941.00,0.60
4940.00,0.60
4939.00,0.60
4938.00,0.60
4937.00,0.60
4936.00,0.60
4935.00,0.60
4934.00,0.60
4933.00,0.60
4932.00,0.60
4931.00,0.60
4930.00,0.60
4929.00,0.60
4928.00,0.60
4927.00,0.60
4926.00,0.60
4925.00,0.60
4924.00,0.60
4923.00,0.60
4922.00,0.60
4921.00,0.61
4920.00,0.61
4919.00,0.61
4918.00,0.61
4917.00,0.61
4916.00,0.61
4915.00,0.61
4914.00,0.61
4913.00,0.61
4912.00,0.61
4911.00,0.61
4910.00,0.61
4909.00,0.61
4908.00,0.61
4907.00,0.61
4906.00,0.61
4905.00,0.61
4904.00,0.62
4903.00,0.62
4902.00,0.62
4901.00,0.62
4900.00,0.62
4899.00,0.62
4898.00,0.62
4897.00,0.62
4896.00,0.62
4895.00,0.62
4894.00,0.62
4893.00,0.62
4892.00,0.62
4891.00,0.62
4890.00,0.62
4889.00,0.62
4888.00,0.62
4887.00,0.62
4886.00,0.62
4885.00,0.62
4884.00,0.62
4883.00,0.62
4882.00,0.62
4881.00,0.62
4880.00,0.62
4879.00,0.62
4878.00,0.62
4877.00,0.62
4876.00,0.62
4875.00,0.62
4874.00,0.62
4873.00,0.63
4872.00,0.63
4871.00,0.63
4870.00,0.63
4869.00,0.63
4868.00,0.63
4867.00,0.63
4866.00,0.63
4865.00,0.63
4864.00,0.63
4863.00,0.63
4862.00,0.63
4861.00,0.63
4860.00,0.63
4859.00,0.63
4858.00,0.63
4857.00,0.63
4856.00,0.63
4855.00,0.63
4854.00,0.63
4853.00,0.63
4852.00,0.63
4851.00,0.63
4850.00,0.63
4849.00,0.63
4848.00,0.64
4847.00,0.64
4846.00,0.64
4845.00,0.64
4844.00,0.64
4843.00,0.64
4842.00,0.64
4841.00,0.64
4840.00,0.64
4839.00,0.64
4838.00,0.64
4837.00,0.65
4836.00,0.65
4835.00,0.65
4834.00,0.65
4833.00,0.65
4832.00,0.65
4831.00,0.65
4830.00,0.65
4829.00,0.65
4828.00,0.65
4827.00,0.65
4826.00,0.65
4825.00,0.65
4824.00,0.65
4823.00,0.65
4822.00,0.65
4821.00,0.65
4820.00,0.65
4819.00,0.65
4818.00,0.65
4817.00,0.65
4816.00,0.65
4815.00,0.65
4814.00,0.65
4813.00,0.65
4812.00,0.65
4811.00,0.65
4810.00,0.65
4809.00,0.65
4808.00,0.65
4807.00,0.65
4806.00,0.65
4805.00,0.65
4804.00,0.66
4803.00,0.66
4802.00,0.66
4801.00,0.66
4800.00,0.66
4799.00,0.66
4798.00,0.66
4797.00,0.66
4796.00,0.66
4795.00,0.66
4794.00,0.67
4793.00,0.67
4792.00,0.67
4791.00,0.67
4790.00,0.67
4789.00,0.67
4788.00,0.67
4787.00,0.68
4786.00,0.68
4785.00,0.68
4784.00,0.68
4783.00,0.68
4782.00,0.68
4781.00,0.68
4780.00,0.68
4779.00,0.68
4778.00,0.68
4777.00,0.68
4776.00,0.68
4775.00,0.68
4774.00,0.68
4773.00,0.68
4772.00,0.68
4771.00,0.68
4770.00,0.69
4769.00,0.69
4768.00,0.69
4767.00,0.69
4766.00,0.69
4765.00,0.69
4764.00,0.69
4763.00,0.69
4762.00,0.69
4761.00,0.69
4760.00,0.70
4759.00,0.70
4758.00,0.70
4757.00,0.70
4756.00,0.70
4755.00,0.70
4754.00,0.70
4753.00,0.70
4752.00,0.71
4751.00,0.71
4750.00,0.71
4749.00,0.71
4748.00,0.71
4747.00,0.71
4746.00,0.71
4745.00,0.71
4744.00,0.71
4743.00,0.71
4742.00,0.71
4741.00,0.71
4740.00,0.71
4739.00,0.71
4738.00,0.72
4737.00,0.72
4736.00,0.72
4735.00,0.72
4734.00,0.72
4733.00,0.72
4732.00,0.72
4731.00,0.72
4730.00,0.72
4729.00,0.72
4728.00,0.73
4727.00,0.73
4726.00,0.73
4725.00,0.73
4724.00,0.73
4723.00,0.73
4722.00,0.73
4721.00,0.73
4720.00,0.73
4719.00,0.74
4718.00,0.74
4717.00,0.74
4716.00,0.74
4715.00,0.74
4714.00,0.74
4713.00,0.74
4712.00,0.74
4711.00,0.74
4710.00,0.74
4709.00,0.74
4708.00,0.74
4707.00,0.74
4706.00,0.75
4705.00,0.75
4704.00,0.75
4703.00,0.75
4702.00,0.75
4701.00,0.75
4700.00,0.75
4699.00,0.75
4698.00,0.76
4697.00,0.76
4696.00,0.76
4695.00,0.76
4694.00,0.76
4693.00,0.76
4692.00,0.77
4691.00,0.77
4690.00,0.77
4689.00,0.77
4688.00,0.77
4687.00,0.77
4686.00,0.77
4685.00,0.77
4684.00,0.77
4683.00,0.78
4682.00,0.78
4681.00,0.78
4680.00,0.78
4679.00,0.78
4678.00,0.78
4677.00,0.78
4676.00,0.78
4675.00,0.78
4674.00,0.78
4673.00,0.78
4672.00,0.78
4671.00,0.78
4670.00,0.78
4669.00,0.78
4668.00,0.79
4667.00,0.79
4666.00,0.79
4665.00,0.79
4664.00,0.79
4663.00,0.79
4662.00,0.79
4661.00,0.79
4660.00,0.79
4659.00,0.79
4658.00,0.80
4657.00,0.80
4656.00,0.80
4655.00,0.80
4654.00,0.80
4653.00,0.80
4652.00,0.80
4651.00,0.80
4650.00,0.80
4649.00,0.80
4648.00,0.80
4647.00,0.80
4646.00,0.80
4645.00,0.80
4644.00,0.81
4643.00,0.81
4642.00,0.81
4641.00,0.81
4640.00,0.81
4639.00,0.81
4638.00,0.81
4637.00,0.81
4636.00,0.81
4635.00,0.81
4634.00,0.81
4633.00,0.81
4632.00,0.82
4631.00,0.82
4630.00,0.82
4629.00,0.82
4628.00,0.82
4627.00,0.82
4626.00,0.82
4625.00,0.82
4624.00,0.82
4623.00,0.82
4622.00,0.82
4621.00,0.82
4620.00,0.82
4619.00,0.82
4618.00,0.82
4617.00,0.83
4616.00,0.83
4615.00,0.83
4614.00,0.83
4613.00,0.83
4612.00,0.83
4611.00,0.83
4610.00,0.83
4609.00,0.83
4608.00,0.83
4607.00,0.83
4606.00,0.83
4605.00,0.84
4604.00,0.84
4603.00,0.84
4602.00,0.84
4601.00,0.84
4600.00,0.84
4599.00,0.84
4598.00,0.84
4597.00,0.84
4596.00,0.84
4595.00,0.84
4594.00,0.84
4593.00,0.84
4592.00,0.84
4591.00,0.85
4590.00,0.85
4589.00,0.85
4588.00,0.85
4587.00,0.85
4586.00,0.85
4585.00,0.85
4584.00,0.85
4583.00,0.85
4582.00,0.85
4581.00,0.86
4580.00,0.86
4579.00,0.86
4578.00,0.86
4577.00,0.86
4576.00,0.86
4575.00,0.86
4574.00,0.86
4573.00,0.86
4572.00,0.86
4571.00,0.86
4570.00,0.86
4569.00,0.87
4568.00,0.87
4567.00,0.87
4566.00,0.87
4565.00,0.87
4564.00,0.87
4563.00,0.87
4562.00,0.87
4561.00,0.87
4560.00,0.87
4559.00,0.87
4558.00,0.87
4557.00,0.87
4556.00,0.87
4555.00,0.87
4554.00,0.87
4553.00,0.87
4552.00,0.87
4551.00,0.87
4550.00,0.88
4549.00,0.88
4548.00,0.88
4547.00,0.88
4546.00,0.88
4545.00,0.88
4544.00,0.88
4543.00,0.88
4542.00,0.88
4541.00,0.88
4540.00,0.88
4539.00,0.88
4538.00,0.88
4537.00,0.88
4536.00,0.88
4535.00,0.88
4534.00,0.88
4533.00,0.88
4532.00,0.88
4531.00,0.88
4530.00,0.88
4529.00,0.88
4528.00,0.88
4527.00,0.88
4526.00,0.88
4525.00,0.88
4524.00,0.88
4523.00,0.88
4522.00,0.88
4521.00,0.88
4520.00,0.88
4519.00,0.88
4518.00,0.88
4517.00,0.88
4516.00,0.88
4515.00,0.88
4514.00,0.88
4513.00,0.88
4512.00,0.88
4511.00,0.88
4510.00,0.88
4509.00,0.88
4508.00,0.88
4507.00,0.88
4506.00,0.88
4505.00,0.88
4504.00,0.88
4503.00,0.88
4502.00,0.88
4501.00,0.88
4500.00,0.88
4499.00,0.88
4498.00,0.88
4497.00,0.88
4496.00,0.88
4495.00,0.88
4494.00,0.88
4493.00,0.88
4492.00,0.88
4491.00,0.88
4490.00,0.88
4489.00,0.88
4488.00,0.88
4487.00,0.88
4486.00,0.88
4485.00,0.88
4484.00,0.88
4483.00,0.88
4482.00,0.87
4481.00,0.87
4480.00,0.87
4479.00,0.87
4478.00,0.87
4477.00,0.87
4476.00,0.87
4475.00,0.87
4474.00,0.86
4473.00,0.86
4472.00,0.86
4471.00,0.86
4470.00,0.86
4469.00,0.86
4468.00,0.85
4467.00,0.85
4466.00,0.85
4465.00,0.85
4464.00,0.85
4463.00,0.84
4462.00,0.84
4461.00,0.84
4460.00,0.84
4459.00,0.84
4458.00,0.84
4457.00,0.83
4456.00,0.83
4455.00,0.83
4454.00,0.83
4453.00,0.83
4452.00,0.82
4451.00,0.82
4450.00,0.82
4449.00,0.82
4448.00,0.81
4447.00,0.81
4446.00,0.81
4445.00,0.81
4444.00,0.80
4443.00,0.80
4442.00,0.80
4441.00,0.79
4440.00,0.79
4439.00,0.79
4438.00,0.79
4437.00,0.78
4436.00,0.78
4435.00,0.78
4434.00,0.78
4433.00,0.77
4432.00,0.77
4431.00,0.77
4430.00,0.77
4429.00,0.77
4428.00,0.77
4427.00,0.77
4426.00,0.77
4425.00,0.77
4424.00,0.76
4423.00,0.76
4422.00,0.76
4421.00,0.76
4420.00,0.76
4419.00,0.76
4418.00,0.76
4417.00,0.76
4416.00,0.76
4415.00,0.76
4414.00,0.76
4413.00,0.76
4412.00,0.76
4411.00,0.76
4410.00,0.77
4409.00,0.77
4408.00,0.77
4407.00,0.77
4406.00,0.77
4405.00,0.77
4404.00,0.77
4403.00,0.77
4402.00,0.77
4401.00,0.77
4400.00,0.77
4399.00,0.77
4398.00,0.77
4397.00,0.77
4396.00,0.77
4395.00,0.77
4394.00,0.77
4393.00,0.77
4392.00,0.77
4391.00,0.77
4390.00,0.77
4389.00,0.77
4388.00,0.77
4387.00,0.77
4386.00,0.77
4385.00,0.77
4384.00,0.77
4383.00,0.77
4382.00,0.77
4381.00,0.77
4380.00,0.78
4379.00,0.78
4378.00,0.78
4377.00,0.78
4376.00,0.78
4375.00,0.78
4374.00,0.78
4373.00,0.78
4372.00,0.78
4371.00,0.78
4370.00,0.78
4369.00,0.79
4368.00,0.79
4367.00,0.79
4366.00,0.79
4365.00,0.79
4364.00,0.79
4363.00,0.79
4362.00,0.79
4361.00,0.79
4360.00,0.79
4359.00,0.79
4358.00,0.79
4357.00,0.79
4356.00,0.79
4355.00,0.79
4354.00,0.79
4353.00,0.79
4352.00,0.79
4351.00,0.79
4350.00,0.79
4349.00,0.79
4348.00,0.79
4347.00,0.79
4346.00,0.79
4345.00,0.79
4344.00,0.79
4343.00,0.79
4342.00,0.79
4341.00,0.79
4340.00,0.79
4339.00,0.79
4338.00,0.79
4337.00,0.79
4336.00,0.79
4335.00,0.79
4334.00,0.79
4333.00,0.79
4332.00,0.79
4331.00,0.80
4330.00,0.80
4329.00,0.80
4328.00,0.80
4327.00,0.80
4326.00,0.80
4325.00,0.80
4324.00,0.80
4323.00,0.80
4322.00,0.80
4321.00,0.80
4320.00,0.80
4319.00,0.81
4318.00,0.81
4317.00,0.81
4316.00,0.81
4315.00,0.81
4314.00,0.81
4313.00,0.81
4312.00,0.81
4311.00,0.81
4310.00,0.81
4309.00,0.82
4308.00,0.82
4307.00,0.82
4306.00,0.82
4305.00,0.82
4304.00,0.82
4303.00,0.82
4302.00,0.82
4301.00,0.83
4300.00,0.83
4299.00,0.83
4298.00,0.83
4297.00,0.83
4296.00,0.83
4295.00,0.83
4294.00,0.83
4293.00,0.83
4292.00,0.83
4291.00,0.83
4290.00,0.83
4289.00,0.83
4288.00,0.83
4287.00,0.84
4286.00,0.84
4285.00,0.84
4284.00,0.84
4283.00,0.84
4282.00,0.84
4281.00,0.84
4280.00,0.84
4279.00,0.84
4278.00,0.84
4277.00,0.84
4276.00,0.84
4275.00,0.84
4274.00,0.84
4273.00,0.84
4272.00,0.84
4271.00,0.84
4270.00,0.84
4269.00,0.84
4268.00,0.84
4267.00,0.84
4266.00,0.84
4265.00,0.84
4264.00,0.84
4263.00,0.84
4262.00,0.84
4261.00,0.84
4260.00,0.84
4259.00,0.83
4258.00,0.83
4257.00,0.83
4256.00,0.83
4255.00,0.83
4254.00,0.83
4253.00,0.83
4252.00,0.83
4251.00,0.83
4250.00,0.83
4249.00,0.83
4248.00,0.83
4247.00,0.83
4246.00,0.83
4245.00,0.83
4244.00,0.84
4243.00,0.84
4242.00,0.84
4241.00,0.84
4240.00,0.84
4239.00,0.84
4238.00,0.84
4237.00,0.84
4236.00,0.85
4235.00,0.85
4234.00,0.85
4233.00,0.85
4232.00,0.85
4231.00,0.86
4230.00,0.86
4229.00,0.86
4228.00,0.86
4227.00,0.86
4226.00,0.86
4225.00,0.86
4224.00,0.86
4223.00,0.87
4222.00,0.87
4221.00,0.87
4220.00,0.87
4219.00,0.87
4218.00,0.87
4217.00,0.87
4216.00,0.87
4215.00,0.87
4214.00,0.86
4213.00,0.86
4212.00,0.86
4211.00,0.86
4210.00,0.86
4209.00,0.86
4208.00,0.86
4207.00,0.86
4206.00,0.86
4205.00,0.86
4204.00,0.86
4203.00,0.86
4202.00,0.86
4201.00,0.86
4200.00,0.86
4199.00,0.86
4198.00,0.86
4197.00,0.86
4196.00,0.86
4195.00,0.86
4194.00,0.86
4193.00,0.86
4192.00,0.86
4191.00,0.86
4190.00,0.86
4189.00,0.87
4188.00,0.87
4187.00,0.87
4186.00,0.87
4185.00,0.87
4184.00,0.87
4183.00,0.87
4182.00,0.87
4181.00,0.87
4180.00,0.87
4179.00,0.87
4178.00,0.87
4177.00,0.88
4176.00,0.88
4175.00,0.88
4174.00,0.88
4173.00,0.88
4172.00,0.88
4171.00,0.88
4170.00,0.88
4169.00,0.88
4168.00,0.88
4167.00,0.88
4166.00,0.88
4165.00,0.88
4164.00,0.88
4163.00,0.88
4162.00,0.88
4161.00,0.88
4160.00,0.88
4159.00,0.88
4158.00,0.88
4157.00,0.88
4156.00,0.88
4155.00,0.88
4154.00,0.88
4153.00,0.89
4152.00,0.89
4151.00,0.89
4150.00,0.89
4149.00,0.89
4148.00,0.89
4147.00,0.89
4146.00,0.89
4145.00,0.89
4144.00,0.89
4143.00,0.89
4142.00,0.89
4141.00,0.89
4140.00,0.89
4139.00,0.89
4138.00,0.89
4137.00,0.89
4136.00,0.89
4135.00,0.89
4134.00,0.89
4133.00,0.89
4132.00,0.89
4131.00,0.89
4130.00,0.89
4129.00,0.89
4128.00,0.89
4127.00,0.89
4126.00,0.89
4125.00,0.89
4124.00,0.89
4123.00,0.89
4122.00,0.89
4121.00,0.89
4120.00,0.89
4119.00,0.89
4118.00,0.89
4117.00,0.89
4116.00,0.89
4115.00,0.89
4114.00,0.89
4113.00,0.89
4112.00,0.89
4111.00,0.89
4110.00,0.89
4109.00,0.89
4108.00,0.89
4107.00,0.89
4106.00,0.89
4105.00,0.89
4104.00,0.90
4103.00,0.90
4102.00,0.90
4101.00,0.90
4100.00,0.90
4099.00,0.90
4098.00,0.90
4097.00,0.90
4096.00,0.91
4095.00,0.91
4094.00,0.91
4093.00,0.91
4092.00,0.91
4091.00,0.91
4090.00,0.91
4089.00,0.92
4088.00,0.92
4087.00,0.92
4086.00,0.92
4085.00,0.92
4084.00,0.92
4083.00,0.92
4082.00,0.92
4081.00,0.92
4080.00,0.92
4079.00,0.92
4078.00,0.92
4077.00,0.92
4076.00,0.92
4075.00,0.92
4074.00,0.92
4073.00,0.92
4072.00,0.92
4071.00,0.92
4070.00,0.92
4069.00,0.92
4068.00,0.92
4067.00,0.92
4066.00,0.92
4065.00,0.92
4064.00,0.92
4063.00,0.92
4062.00,0.92
4061.00,0.92
4060.00,0.92
4059.00,0.92
4058.00,0.92
4057.00,0.92
4056.00,0.92
4055.00,0.92
4054.00,0.92
4053.00,0.92
4052.00,0.92
4051.00,0.92
4050.00,0.92
4049.00,0.92
4048.00,0.92
4047.00,0.92
4046.00,0.92
4045.00,0.92
4044.00,0.92
4043.00,0.92
4042.00,0.92
4041.00,0.92
4040.00,0.92
4039.00,0.92
4038.00,0.92
4037.00,0.92
4036.00,0.92
4035.00,0.92
4034.00,0.92
4033.00,0.92
4032.00,0.93
4031.00,0.93
4030.00,0.93
4029.00,0.93
4028.00,0.93
4027.00,0.93
4026.00,0.93
4025.00,0.93
4024.00,0.93
4023.00,0.93
4022.00,0.93
4021.00,0.94
4020.00,0.94
4019.00,0.94
4018.00,0.94
4017.00,0.94
4016.00,0.94
4015.00,0.94
4014.00,0.94
4013.00,0.94
4012.00,0.94
4011.00,0.94
4010.00,0.94
4009.00,0.94
4008.00,0.94
4007.00,0.95
4006.00,0.95
4005.00,0.95
4004.00,0.95
4003.00,0.95
4002.00,0.95
4001.00,0.96
4000.00,0.96
