创建为新数据集,样品 318 用户 Administrator 日期 星期四, 三月 08 2018
cm-1,%T
10000.00,1.00
9999.00,1.00
9998.00,1.00
9997.00,1.00
9996.00,1.00
9995.00,1.00
9994.00,1.00
9993.00,1.00
9992.00,1.00
9991.00,1.00
9990.00,1.00
9989.00,1.00
9988.00,1.00
9987.00,1.00
9986.00,1.00
9985.00,1.00
9984.00,1.00
9983.00,1.00
9982.00,1.00
9981.00,1.00
9980.00,1.00
9979.00,1.00
9978.00,1.00
9977.00,1.00
9976.00,1.00
9975.00,1.00
9974.00,1.00
9973.00,0.99
9972.00,0.99
9971.00,0.99
9970.00,0.99
9969.00,0.99
9968.00,0.99
9967.00,0.99
9966.00,0.99
9965.00,0.99
9964.00,0.98
9963.00,0.98
9962.00,0.98
9961.00,0.98
9960.00,0.98
9959.00,0.98
9958.00,0.98
9957.00,0.98
9956.00,0.98
9955.00,0.98
9954.00,0.98
9953.00,0.98
9952.00,0.98
9951.00,0.99
9950.00,0.99
9949.00,0.99
9948.00,0.99
9947.00,0.99
9946.00,0.99
9945.00,0.99
9944.00,0.99
9943.00,0.99
9942.00,0.99
9941.00,0.99
9940.00,1.00
9939.00,1.00
9938.00,1.00
9937.00,1.00
9936.00,1.00
9935.00,1.00
9934.00,1.00
9933.00,1.00
9932.00,1.00
9931.00,1.00
9930.00,1.00
9929.00,1.00
9928.00,0.99
9927.00,0.99
9926.00,0.99
9925.00,0.99
9924.00,0.99
9923.00,0.99
9922.00,0.99
9921.00,0.99
9920.00,0.99
9919.00,0.99
9918.00,0.99
9917.00,0.98
9916.00,0.98
9915.00,0.98
9914.00,0.98
9913.00,0.98
9912.00,0.98
9911.00,0.98
9910.00,0.98
9909.00,0.98
9908.00,0.98
9907.00,0.98
9906.00,0.98
9905.00,0.98
9904.00,0.98
9903.00,0.98
9902.00,0.98
9901.00,0.98
9900.00,0.98
9899.00,0.98
9898.00,0.98
9897.00,0.98
9896.00,0.98
9895.00,0.98
9894.00,0.98
9893.00,0.99
9892.00,0.99
9891.00,0.99
9890.00,0.99
9889.00,0.99
9888.00,0.99
9887.00,0.99
9886.00,0.99
9885.00,1.00
9884.00,1.00
9883.00,1.00
9882.00,1.00
9881.00,1.00
9880.00,1.00
9879.00,1.00
9878.00,1.00
9877.00,1.00
9876.00,1.00
9875.00,1.00
9874.00,1.00
9873.00,1.00
9872.00,0.99
9871.00,0.99
9870.00,0.99
9869.00,0.99
9868.00,0.99
9867.00,0.99
9866.00,0.98
9865.00,0.98
9864.00,0.98
9863.00,0.98
9862.00,0.98
9861.00,0.98
9860.00,0.97
9859.00,0.97
9858.00,0.97
9857.00,0.97
9856.00,0.97
9855.00,0.97
9854.00,0.96
9853.00,0.96
9852.00,0.96
9851.00,0.96
9850.00,0.96
9849.00,0.96
9848.00,0.96
9847.00,0.96
9846.00,0.96
9845.00,0.96
9844.00,0.96
9843.00,0.96
9842.00,0.97
9841.00,0.97
9840.00,0.97
9839.00,0.97
9838.00,0.97
9837.00,0.97
9836.00,0.97
9835.00,0.97
9834.00,0.97
9833.00,0.97
9832.00,0.97
9831.00,0.97
9830.00,0.97
9829.00,0.97
9828.00,0.97
9827.00,0.97
9826.00,0.97
9825.00,0.97
9824.00,0.97
9823.00,0.97
9822.00,0.97
9821.00,0.96
9820.00,0.96
9819.00,0.96
9818.00,0.96
9817.00,0.96
9816.00,0.96
9815.00,0.96
9814.00,0.95
9813.00,0.95
9812.00,0.95
9811.00,0.95
9810.00,0.95
9809.00,0.95
9808.00,0.95
9807.00,0.95
9806.00,0.95
9805.00,0.95
9804.00,0.95
9803.00,0.95
9802.00,0.95
9801.00,0.95
9800.00,0.96
9799.00,0.96
9798.00,0.96
9797.00,0.96
9796.00,0.97
9795.00,0.97
9794.00,0.97
9793.00,0.98
9792.00,0.98
9791.00,0.98
9790.00,0.99
9789.00,0.99
9788.00,0.99
9787.00,1.00
9786.00,1.00
9785.00,1.00
9784.00,1.00
9783.00,1.00
9782.00,1.00
9781.00,0.99
9780.00,0.99
9779.00,0.99
9778.00,0.98
9777.00,0.98
9776.00,0.98
9775.00,0.97
9774.00,0.97
9773.00,0.96
9772.00,0.96
9771.00,0.96
9770.00,0.95
9769.00,0.95
9768.00,0.95
9767.00,0.95
9766.00,0.94
9765.00,0.94
9764.00,0.94
9763.00,0.94
9762.00,0.95
9761.00,0.95
9760.00,0.95
9759.00,0.95
9758.00,0.96
9757.00,0.96
9756.00,0.96
9755.00,0.97
9754.00,0.97
9753.00,0.97
9752.00,0.98
9751.00,0.98
9750.00,0.98
9749.00,0.98
9748.00,0.98
9747.00,0.98
9746.00,0.98
9745.00,0.98
9744.00,0.98
9743.00,0.98
9742.00,0.98
9741.00,0.98
9740.00,0.98
9739.00,0.98
9738.00,0.97
9737.00,0.97
9736.00,0.97
9735.00,0.97
9734.00,0.97
9733.00,0.97
9732.00,0.97
9731.00,0.97
9730.00,0.96
9729.00,0.96
9728.00,0.96
9727.00,0.96
9726.00,0.96
9725.00,0.96
9724.00,0.96
9723.00,0.96
9722.00,0.96
9721.00,0.96
9720.00,0.96
9719.00,0.96
9718.00,0.96
9717.00,0.96
9716.00,0.96
9715.00,0.96
9714.00,0.96
9713.00,0.96
9712.00,0.96
9711.00,0.96
9710.00,0.96
9709.00,0.96
9708.00,0.96
9707.00,0.96
9706.00,0.96
9705.00,0.96
9704.00,0.97
9703.00,0.97
9702.00,0.97
9701.00,0.97
9700.00,0.97
9699.00,0.97
9698.00,0.97
9697.00,0.98
9696.00,0.98
9695.00,0.98
9694.00,0.98
9693.00,0.99
9692.00,0.99
9691.00,0.99
9690.00,0.99
9689.00,0.99
9688.00,1.00
9687.00,1.00
9686.00,1.00
9685.00,1.00
9684.00,1.00
9683.00,1.00
9682.00,1.00
9681.00,1.00
9680.00,0.99
9679.00,0.99
9678.00,0.99
9677.00,0.99
9676.00,0.98
9675.00,0.98
9674.00,0.98
9673.00,0.98
9672.00,0.98
9671.00,0.97
9670.00,0.97
9669.00,0.97
9668.00,0.97
9667.00,0.97
9666.00,0.97
9665.00,0.97
9664.00,0.97
9663.00,0.97
9662.00,0.97
9661.00,0.97
9660.00,0.97
9659.00,0.97
9658.00,0.98
9657.00,0.98
9656.00,0.97
9655.00,0.97
9654.00,0.97
9653.00,0.97
9652.00,0.97
9651.00,0.97
9650.00,0.97
9649.00,0.97
9648.00,0.97
9647.00,0.96
9646.00,0.96
9645.00,0.96
9644.00,0.96
9643.00,0.96
9642.00,0.96
9641.00,0.96
9640.00,0.96
9639.00,0.97
9638.00,0.97
9637.00,0.97
9636.00,0.97
9635.00,0.97
9634.00,0.97
9633.00,0.97
9632.00,0.97
9631.00,0.97
9630.00,0.97
9629.00,0.97
9628.00,0.97
9627.00,0.97
9626.00,0.97
9625.00,0.97
9624.00,0.97
9623.00,0.97
9622.00,0.97
9621.00,0.97
9620.00,0.97
9619.00,0.97
9618.00,0.97
9617.00,0.97
9616.00,0.97
9615.00,0.97
9614.00,0.97
9613.00,0.97
9612.00,0.97
9611.00,0.97
9610.00,0.97
9609.00,0.98
9608.00,0.98
9607.00,0.98
9606.00,0.98
9605.00,0.98
9604.00,0.98
9603.00,0.99
9602.00,0.99
9601.00,0.99
9600.00,0.99
9599.00,0.99
9598.00,0.99
9597.00,0.99
9596.00,0.99
9595.00,0.99
9594.00,0.99
9593.00,0.99
9592.00,0.99
9591.00,0.99
9590.00,0.99
9589.00,0.99
9588.00,0.99
9587.00,0.99
9586.00,0.99
9585.00,0.99
9584.00,0.99
9583.00,0.99
9582.00,0.99
9581.00,0.98
9580.00,0.98
9579.00,0.98
9578.00,0.98
9577.00,0.97
9576.00,0.97
9575.00,0.97
9574.00,0.97
9573.00,0.97
9572.00,0.96
9571.00,0.96
9570.00,0.96
9569.00,0.96
9568.00,0.96
9567.00,0.96
9566.00,0.96
9565.00,0.96
9564.00,0.96
9563.00,0.96
9562.00,0.97
9561.00,0.97
9560.00,0.97
9559.00,0.97
9558.00,0.97
9557.00,0.97
9556.00,0.97
9555.00,0.97
9554.00,0.97
9553.00,0.98
9552.00,0.98
9551.00,0.98
9550.00,0.98
9549.00,0.98
9548.00,0.98
9547.00,0.98
9546.00,0.98
9545.00,0.97
9544.00,0.97
9543.00,0.97
9542.00,0.97
9541.00,0.97
9540.00,0.96
9539.00,0.96
9538.00,0.96
9537.00,0.96
9536.00,0.96
9535.00,0.95
9534.00,0.95
9533.00,0.95
9532.00,0.95
9531.00,0.95
9530.00,0.95
9529.00,0.95
9528.00,0.95
9527.00,0.95
9526.00,0.94
9525.00,0.94
9524.00,0.95
9523.00,0.95
9522.00,0.95
9521.00,0.95
9520.00,0.95
9519.00,0.95
9518.00,0.95
9517.00,0.95
9516.00,0.96
9515.00,0.96
9514.00,0.96
9513.00,0.96
9512.00,0.97
9511.00,0.97
9510.00,0.97
9509.00,0.98
9508.00,0.98
9507.00,0.98
9506.00,0.98
9505.00,0.99
9504.00,0.99
9503.00,0.99
9502.00,0.99
9501.00,0.99
9500.00,0.99
9499.00,0.99
9498.00,1.00
9497.00,0.99
9496.00,0.99
9495.00,0.99
9494.00,0.99
9493.00,0.99
9492.00,0.99
9491.00,0.99
9490.00,0.99
9489.00,0.99
9488.00,0.98
9487.00,0.98
9486.00,0.98
9485.00,0.98
9484.00,0.98
9483.00,0.98
9482.00,0.98
9481.00,0.98
9480.00,0.98
9479.00,0.98
9478.00,0.98
9477.00,0.98
9476.00,0.98
9475.00,0.98
9474.00,0.98
9473.00,0.98
9472.00,0.98
9471.00,0.98
9470.00,0.98
9469.00,0.98
9468.00,0.98
9467.00,0.98
9466.00,0.98
9465.00,0.97
9464.00,0.97
9463.00,0.97
9462.00,0.97
9461.00,0.97
9460.00,0.97
9459.00,0.96
9458.00,0.96
9457.00,0.96
9456.00,0.96
9455.00,0.96
9454.00,0.96
9453.00,0.96
9452.00,0.96
9451.00,0.96
9450.00,0.96
9449.00,0.96
9448.00,0.96
9447.00,0.96
9446.00,0.97
9445.00,0.97
9444.00,0.97
9443.00,0.97
9442.00,0.97
9441.00,0.97
9440.00,0.97
9439.00,0.97
9438.00,0.97
9437.00,0.97
9436.00,0.97
9435.00,0.97
9434.00,0.97
9433.00,0.97
9432.00,0.97
9431.00,0.97
9430.00,0.97
9429.00,0.97
9428.00,0.97
9427.00,0.97
9426.00,0.97
9425.00,0.97
9424.00,0.97
9423.00,0.97
9422.00,0.97
9421.00,0.97
9420.00,0.97
9419.00,0.96
9418.00,0.96
9417.00,0.96
9416.00,0.96
9415.00,0.96
9414.00,0.96
9413.00,0.96
9412.00,0.96
9411.00,0.95
9410.00,0.95
9409.00,0.95
9408.00,0.95
9407.00,0.95
9406.00,0.95
9405.00,0.95
9404.00,0.95
9403.00,0.95
9402.00,0.95
9401.00,0.95
9400.00,0.96
9399.00,0.96
9398.00,0.96
9397.00,0.96
9396.00,0.96
9395.00,0.96
9394.00,0.97
9393.00,0.97
9392.00,0.97
9391.00,0.97
9390.00,0.97
9389.00,0.97
9388.00,0.97
9387.00,0.97
9386.00,0.98
9385.00,0.98
9384.00,0.98
9383.00,0.98
9382.00,0.98
9381.00,0.98
9380.00,0.98
9379.00,0.98
9378.00,0.98
9377.00,0.99
9376.00,0.99
9375.00,0.99
9374.00,0.99
9373.00,0.99
9372.00,0.99
9371.00,0.99
9370.00,0.98
9369.00,0.98
9368.00,0.98
9367.00,0.98
9366.00,0.98
9365.00,0.98
9364.00,0.98
9363.00,0.98
9362.00,0.97
9361.00,0.97
9360.00,0.97
9359.00,0.97
9358.00,0.98
9357.00,0.98
9356.00,0.98
9355.00,0.98
9354.00,0.98
9353.00,0.98
9352.00,0.99
9351.00,0.99
9350.00,0.99
9349.00,0.99
9348.00,1.00
9347.00,1.00
9346.00,1.00
9345.00,1.00
9344.00,1.00
9343.00,1.00
9342.00,1.00
9341.00,1.00
9340.00,1.00
9339.00,1.00
9338.00,0.99
9337.00,0.99
9336.00,0.99
9335.00,0.99
9334.00,0.99
9333.00,0.98
9332.00,0.98
9331.00,0.98
9330.00,0.98
9329.00,0.98
9328.00,0.98
9327.00,0.97
9326.00,0.97
9325.00,0.97
9324.00,0.97
9323.00,0.97
9322.00,0.98
9321.00,0.98
9320.00,0.98
9319.00,0.98
9318.00,0.98
9317.00,0.98
9316.00,0.98
9315.00,0.98
9314.00,0.98
9313.00,0.98
9312.00,0.98
9311.00,0.98
9310.00,0.98
9309.00,0.98
9308.00,0.98
9307.00,0.98
9306.00,0.98
9305.00,0.98
9304.00,0.98
9303.00,0.98
9302.00,0.98
9301.00,0.98
9300.00,0.98
9299.00,0.98
9298.00,0.98
9297.00,0.98
9296.00,0.98
9295.00,0.98
9294.00,0.99
9293.00,0.99
9292.00,0.99
9291.00,0.99
9290.00,0.99
9289.00,0.99
9288.00,0.99
9287.00,0.99
9286.00,0.99
9285.00,0.99
9284.00,0.99
9283.00,0.99
9282.00,0.99
9281.00,0.99
9280.00,0.99
9279.00,0.99
9278.00,0.99
9277.00,0.99
9276.00,0.99
9275.00,0.99
9274.00,0.98
9273.00,0.98
9272.00,0.98
9271.00,0.98
9270.00,0.98
9269.00,0.98
9268.00,0.98
9267.00,0.98
9266.00,0.98
9265.00,0.99
9264.00,0.99
9263.00,0.99
9262.00,0.98
9261.00,0.98
9260.00,0.98
9259.00,0.98
9258.00,0.98
9257.00,0.98
9256.00,0.98
9255.00,0.98
9254.00,0.98
9253.00,0.98
9252.00,0.98
9251.00,0.98
9250.00,0.98
9249.00,0.98
9248.00,0.98
9247.00,0.97
9246.00,0.97
9245.00,0.97
9244.00,0.97
9243.00,0.97
9242.00,0.97
9241.00,0.97
9240.00,0.97
9239.00,0.97
9238.00,0.97
9237.00,0.97
9236.00,0.97
9235.00,0.97
9234.00,0.97
9233.00,0.97
9232.00,0.98
9231.00,0.98
9230.00,0.98
9229.00,0.98
9228.00,0.98
9227.00,0.98
9226.00,0.98
9225.00,0.99
9224.00,0.99
9223.00,0.99
9222.00,0.99
9221.00,0.99
9220.00,0.99
9219.00,0.99
9218.00,0.99
9217.00,0.99
9216.00,0.99
9215.00,0.99
9214.00,0.99
9213.00,0.99
9212.00,0.99
9211.00,0.99
9210.00,0.99
9209.00,0.99
9208.00,0.99
9207.00,0.99
9206.00,0.99
9205.00,0.98
9204.00,0.98
9203.00,0.98
9202.00,0.98
9201.00,0.98
9200.00,0.98
9199.00,0.98
9198.00,0.97
9197.00,0.97
9196.00,0.97
9195.00,0.97
9194.00,0.97
9193.00,0.98
9192.00,0.98
9191.00,0.98
9190.00,0.98
9189.00,0.98
9188.00,0.98
9187.00,0.99
9186.00,0.99
9185.00,0.99
9184.00,0.99
9183.00,0.99
9182.00,0.99
9181.00,0.99
9180.00,1.00
9179.00,1.00
9178.00,1.00
9177.00,0.99
9176.00,0.99
9175.00,0.99
9174.00,0.99
9173.00,0.99
9172.00,0.99
9171.00,0.99
9170.00,0.99
9169.00,0.98
9168.00,0.98
9167.00,0.98
9166.00,0.98
9165.00,0.98
9164.00,0.98
9163.00,0.98
9162.00,0.98
9161.00,0.98
9160.00,0.98
9159.00,0.98
9158.00,0.98
9157.00,0.98
9156.00,0.99
9155.00,0.99
9154.00,0.99
9153.00,0.99
9152.00,0.99
9151.00,0.99
9150.00,0.99
9149.00,0.99
9148.00,0.99
9147.00,1.00
9146.00,1.00
9145.00,1.00
9144.00,1.00
9143.00,1.00
9142.00,1.00
9141.00,1.00
9140.00,1.00
9139.00,1.00
9138.00,0.99
9137.00,0.99
9136.00,0.99
9135.00,0.99
9134.00,0.99
9133.00,0.99
9132.00,0.99
9131.00,0.99
9130.00,0.99
9129.00,0.99
9128.00,0.99
9127.00,0.99
9126.00,0.99
9125.00,0.98
9124.00,0.98
9123.00,0.98
9122.00,0.98
9121.00,0.98
9120.00,0.98
9119.00,0.98
9118.00,0.98
9117.00,0.98
9116.00,0.98
9115.00,0.98
9114.00,0.98
9113.00,0.98
9112.00,0.98
9111.00,0.98
9110.00,0.98
9109.00,0.98
9108.00,0.99
9107.00,0.99
9106.00,0.99
9105.00,0.99
9104.00,0.99
9103.00,0.99
9102.00,0.99
9101.00,0.99
9100.00,0.99
9099.00,1.00
9098.00,1.00
9097.00,1.00
9096.00,1.00
9095.00,1.00
9094.00,1.00
9093.00,1.00
9092.00,0.99
9091.00,0.99
9090.00,0.99
9089.00,0.99
9088.00,0.99
9087.00,0.99
9086.00,0.99
9085.00,0.99
9084.00,0.99
9083.00,0.99
9082.00,0.99
9081.00,0.99
9080.00,0.99
9079.00,0.99
9078.00,0.99
9077.00,0.99
9076.00,0.99
9075.00,0.99
9074.00,0.99
9073.00,0.99
9072.00,0.99
9071.00,0.99
9070.00,0.99
9069.00,0.99
9068.00,0.98
9067.00,0.98
9066.00,0.98
9065.00,0.98
9064.00,0.98
9063.00,0.98
9062.00,0.98
9061.00,0.98
9060.00,0.98
9059.00,0.98
9058.00,0.98
9057.00,0.99
9056.00,0.99
9055.00,0.99
9054.00,0.99
9053.00,0.99
9052.00,0.99
9051.00,0.99
9050.00,0.99
9049.00,0.99
9048.00,0.99
9047.00,0.98
9046.00,0.98
9045.00,0.98
9044.00,0.98
9043.00,0.98
9042.00,0.98
9041.00,0.98
9040.00,0.98
9039.00,0.98
9038.00,0.98
9037.00,0.98
9036.00,0.98
9035.00,0.98
9034.00,0.98
9033.00,0.97
9032.00,0.97
9031.00,0.97
9030.00,0.97
9029.00,0.97
9028.00,0.97
9027.00,0.97
9026.00,0.97
9025.00,0.97
9024.00,0.97
9023.00,0.97
9022.00,0.97
9021.00,0.97
9020.00,0.97
9019.00,0.97
9018.00,0.97
9017.00,0.97
9016.00,0.97
9015.00,0.97
9014.00,0.97
9013.00,0.97
9012.00,0.97
9011.00,0.97
9010.00,0.97
9009.00,0.97
9008.00,0.97
9007.00,0.97
9006.00,0.97
9005.00,0.97
9004.00,0.97
9003.00,0.97
9002.00,0.97
9001.00,0.97
9000.00,0.97
8999.00,0.97
8998.00,0.97
8997.00,0.97
8996.00,0.97
8995.00,0.97
8994.00,0.97
8993.00,0.97
8992.00,0.97
8991.00,0.97
8990.00,0.97
8989.00,0.97
8988.00,0.97
8987.00,0.97
8986.00,0.97
8985.00,0.98
8984.00,0.98
8983.00,0.98
8982.00,0.98
8981.00,0.98
8980.00,0.98
8979.00,0.98
8978.00,0.98
8977.00,0.98
8976.00,0.98
8975.00,0.99
8974.00,0.99
8973.00,0.99
8972.00,0.99
8971.00,0.99
8970.00,0.99
8969.00,0.99
8968.00,0.99
8967.00,1.00
8966.00,1.00
8965.00,1.00
8964.00,1.00
8963.00,1.00
8962.00,1.00
8961.00,1.00
8960.00,1.00
8959.00,1.00
8958.00,1.00
8957.00,1.00
8956.00,1.00
8955.00,1.00
8954.00,1.00
8953.00,1.00
8952.00,0.99
8951.00,0.99
8950.00,0.99
8949.00,0.99
8948.00,0.99
8947.00,0.99
8946.00,0.99
8945.00,0.99
8944.00,0.99
8943.00,0.99
8942.00,0.98
8941.00,0.98
8940.00,0.98
8939.00,0.98
8938.00,0.98
8937.00,0.98
8936.00,0.98
8935.00,0.98
8934.00,0.98
8933.00,0.98
8932.00,0.98
8931.00,0.98
8930.00,0.98
8929.00,0.98
8928.00,0.98
8927.00,0.98
8926.00,0.98
8925.00,0.98
8924.00,0.98
8923.00,0.98
8922.00,0.98
8921.00,0.98
8920.00,0.98
8919.00,0.98
8918.00,0.98
8917.00,0.98
8916.00,0.98
8915.00,0.98
8914.00,0.98
8913.00,0.98
8912.00,0.98
8911.00,0.98
8910.00,0.98
8909.00,0.98
8908.00,0.98
8907.00,0.98
8906.00,0.98
8905.00,0.98
8904.00,0.98
8903.00,0.98
8902.00,0.98
8901.00,0.98
8900.00,0.98
8899.00,0.98
8898.00,0.99
8897.00,0.99
8896.00,0.99
8895.00,0.99
8894.00,0.99
8893.00,0.99
8892.00,0.99
8891.00,0.99
8890.00,0.99
8889.00,0.99
8888.00,0.99
8887.00,0.99
8886.00,0.99
8885.00,0.99
8884.00,0.99
8883.00,0.99
8882.00,0.99
8881.00,0.99
8880.00,0.99
8879.00,0.99
8878.00,0.99
8877.00,0.99
8876.00,0.99
8875.00,0.99
8874.00,0.99
8873.00,0.98
8872.00,0.98
8871.00,0.98
8870.00,0.98
8869.00,0.98
8868.00,0.98
8867.00,0.98
8866.00,0.98
8865.00,0.98
8864.00,0.98
8863.00,0.98
8862.00,0.98
8861.00,0.98
8860.00,0.98
8859.00,0.98
8858.00,0.99
8857.00,0.99
8856.00,0.99
8855.00,0.99
8854.00,0.99
8853.00,0.99
8852.00,0.99
8851.00,0.99
8850.00,0.99
8849.00,1.00
8848.00,1.00
8847.00,0.99
8846.00,0.99
8845.00,0.99
8844.00,0.99
8843.00,0.99
8842.00,0.99
8841.00,0.99
8840.00,0.99
8839.00,0.98
8838.00,0.98
8837.00,0.98
8836.00,0.98
8835.00,0.98
8834.00,0.98
8833.00,0.98
8832.00,0.97
8831.00,0.97
8830.00,0.97
8829.00,0.97
8828.00,0.97
8827.00,0.97
8826.00,0.97
8825.00,0.97
8824.00,0.97
8823.00,0.97
8822.00,0.97
8821.00,0.97
8820.00,0.97
8819.00,0.97
8818.00,0.97
8817.00,0.97
8816.00,0.97
8815.00,0.97
8814.00,0.97
8813.00,0.97
8812.00,0.97
8811.00,0.97
8810.00,0.97
8809.00,0.97
8808.00,0.97
8807.00,0.97
8806.00,0.97
8805.00,0.97
8804.00,0.96
8803.00,0.96
8802.00,0.96
8801.00,0.96
8800.00,0.96
8799.00,0.96
8798.00,0.96
8797.00,0.96
8796.00,0.96
8795.00,0.96
8794.00,0.96
8793.00,0.96
8792.00,0.96
8791.00,0.96
8790.00,0.96
8789.00,0.97
8788.00,0.97
8787.00,0.97
8786.00,0.97
8785.00,0.97
8784.00,0.97
8783.00,0.97
8782.00,0.97
8781.00,0.97
8780.00,0.97
8779.00,0.96
8778.00,0.96
8777.00,0.96
8776.00,0.96
8775.00,0.96
8774.00,0.96
8773.00,0.96
8772.00,0.96
8771.00,0.96
8770.00,0.96
8769.00,0.96
8768.00,0.96
8767.00,0.96
8766.00,0.97
8765.00,0.97
8764.00,0.97
8763.00,0.97
8762.00,0.97
8761.00,0.97
8760.00,0.97
8759.00,0.97
8758.00,0.98
8757.00,0.98
8756.00,0.98
8755.00,0.98
8754.00,0.98
8753.00,0.98
8752.00,0.98
8751.00,0.97
8750.00,0.97
8749.00,0.97
8748.00,0.97
8747.00,0.97
8746.00,0.97
8745.00,0.96
8744.00,0.96
8743.00,0.96
8742.00,0.96
8741.00,0.96
8740.00,0.96
8739.00,0.96
8738.00,0.95
8737.00,0.95
8736.00,0.95
8735.00,0.95
8734.00,0.95
8733.00,0.96
8732.00,0.96
8731.00,0.96
8730.00,0.96
8729.00,0.96
8728.00,0.96
8727.00,0.96
8726.00,0.96
8725.00,0.96
8724.00,0.96
8723.00,0.97
8722.00,0.97
8721.00,0.97
8720.00,0.97
8719.00,0.97
8718.00,0.97
8717.00,0.97
8716.00,0.97
8715.00,0.97
8714.00,0.97
8713.00,0.97
8712.00,0.97
8711.00,0.96
8710.00,0.96
8709.00,0.96
8708.00,0.96
8707.00,0.96
8706.00,0.96
8705.00,0.96
8704.00,0.96
8703.00,0.95
8702.00,0.95
8701.00,0.95
8700.00,0.95
8699.00,0.95
8698.00,0.95
8697.00,0.95
8696.00,0.95
8695.00,0.95
8694.00,0.95
8693.00,0.95
8692.00,0.95
8691.00,0.95
8690.00,0.95
8689.00,0.95
8688.00,0.95
8687.00,0.95
8686.00,0.95
8685.00,0.95
8684.00,0.95
8683.00,0.95
8682.00,0.95
8681.00,0.95
8680.00,0.95
8679.00,0.95
8678.00,0.95
8677.00,0.95
8676.00,0.95
8675.00,0.95
8674.00,0.96
8673.00,0.96
8672.00,0.96
8671.00,0.96
8670.00,0.96
8669.00,0.96
8668.00,0.96
8667.00,0.96
8666.00,0.95
8665.00,0.95
8664.00,0.95
8663.00,0.95
8662.00,0.95
8661.00,0.94
8660.00,0.94
8659.00,0.94
8658.00,0.94
8657.00,0.93
8656.00,0.93
8655.00,0.93
8654.00,0.93
8653.00,0.92
8652.00,0.92
8651.00,0.92
8650.00,0.92
8649.00,0.92
8648.00,0.92
8647.00,0.92
8646.00,0.92
8645.00,0.92
8644.00,0.92
8643.00,0.92
8642.00,0.92
8641.00,0.92
8640.00,0.92
8639.00,0.92
8638.00,0.92
8637.00,0.92
8636.00,0.92
8635.00,0.92
8634.00,0.93
8633.00,0.93
8632.00,0.93
8631.00,0.93
8630.00,0.93
8629.00,0.93
8628.00,0.93
8627.00,0.93
8626.00,0.93
8625.00,0.93
8624.00,0.93
8623.00,0.93
8622.00,0.93
8621.00,0.93
8620.00,0.93
8619.00,0.93
8618.00,0.93
8617.00,0.93
8616.00,0.93
8615.00,0.93
8614.00,0.93
8613.00,0.93
8612.00,0.93
8611.00,0.93
8610.00,0.92
8609.00,0.92
8608.00,0.92
8607.00,0.92
8606.00,0.92
8605.00,0.92
8604.00,0.92
8603.00,0.92
8602.00,0.92
8601.00,0.92
8600.00,0.92
8599.00,0.91
8598.00,0.91
8597.00,0.91
8596.00,0.91
8595.00,0.91
8594.00,0.91
8593.00,0.91
8592.00,0.91
8591.00,0.91
8590.00,0.91
8589.00,0.91
8588.00,0.91
8587.00,0.91
8586.00,0.91
8585.00,0.91
8584.00,0.91
8583.00,0.91
8582.00,0.91
8581.00,0.91
8580.00,0.91
8579.00,0.91
8578.00,0.91
8577.00,0.91
8576.00,0.91
8575.00,0.91
8574.00,0.91
8573.00,0.91
8572.00,0.91
8571.00,0.91
8570.00,0.91
8569.00,0.91
8568.00,0.91
8567.00,0.91
8566.00,0.91
8565.00,0.91
8564.00,0.91
8563.00,0.91
8562.00,0.91
8561.00,0.91
8560.00,0.91
8559.00,0.91
8558.00,0.91
8557.00,0.91
8556.00,0.91
8555.00,0.91
8554.00,0.91
8553.00,0.91
8552.00,0.91
8551.00,0.91
8550.00,0.91
8549.00,0.91
8548.00,0.91
8547.00,0.91
8546.00,0.91
8545.00,0.90
8544.00,0.90
8543.00,0.90
8542.00,0.90
8541.00,0.90
8540.00,0.90
8539.00,0.90
8538.00,0.89
8537.00,0.89
8536.00,0.89
8535.00,0.89
8534.00,0.89
8533.00,0.89
8532.00,0.89
8531.00,0.89
8530.00,0.89
8529.00,0.89
8528.00,0.89
8527.00,0.89
8526.00,0.89
8525.00,0.89
8524.00,0.89
8523.00,0.89
8522.00,0.90
8521.00,0.90
8520.00,0.90
8519.00,0.90
8518.00,0.90
8517.00,0.90
8516.00,0.90
8515.00,0.90
8514.00,0.89
8513.00,0.89
8512.00,0.89
8511.00,0.89
8510.00,0.89
8509.00,0.89
8508.00,0.88
8507.00,0.88
8506.00,0.88
8505.00,0.88
8504.00,0.88
8503.00,0.87
8502.00,0.87
8501.00,0.87
8500.00,0.87
8499.00,0.87
8498.00,0.87
8497.00,0.87
8496.00,0.87
8495.00,0.87
8494.00,0.87
8493.00,0.87
8492.00,0.87
8491.00,0.87
8490.00,0.87
8489.00,0.87
8488.00,0.87
8487.00,0.87
8486.00,0.87
8485.00,0.87
8484.00,0.87
8483.00,0.87
8482.00,0.87
8481.00,0.87
8480.00,0.87
8479.00,0.87
8478.00,0.87
8477.00,0.87
8476.00,0.87
8475.00,0.87
8474.00,0.87
8473.00,0.86
8472.00,0.86
8471.00,0.86
8470.00,0.86
8469.00,0.86
8468.00,0.86
8467.00,0.86
8466.00,0.86
8465.00,0.86
8464.00,0.86
8463.00,0.85
8462.00,0.85
8461.00,0.85
8460.00,0.85
8459.00,0.85
8458.00,0.85
8457.00,0.85
8456.00,0.85
8455.00,0.84
8454.00,0.84
8453.00,0.84
8452.00,0.84
8451.00,0.84
8450.00,0.84
8449.00,0.84
8448.00,0.84
8447.00,0.84
8446.00,0.84
8445.00,0.84
8444.00,0.84
8443.00,0.84
8442.00,0.84
8441.00,0.84
8440.00,0.84
8439.00,0.84
8438.00,0.84
8437.00,0.84
8436.00,0.84
8435.00,0.84
8434.00,0.84
8433.00,0.84
8432.00,0.85
8431.00,0.85
8430.00,0.85
8429.00,0.85
8428.00,0.85
8427.00,0.85
8426.00,0.85
8425.00,0.85
8424.00,0.86
8423.00,0.86
8422.00,0.86
8421.00,0.86
8420.00,0.86
8419.00,0.86
8418.00,0.86
8417.00,0.86
8416.00,0.86
8415.00,0.87
8414.00,0.87
8413.00,0.87
8412.00,0.87
8411.00,0.87
8410.00,0.87
8409.00,0.87
8408.00,0.87
8407.00,0.87
8406.00,0.87
8405.00,0.87
8404.00,0.87
8403.00,0.87
8402.00,0.87
8401.00,0.87
8400.00,0.87
8399.00,0.87
8398.00,0.87
8397.00,0.87
8396.00,0.87
8395.00,0.87
8394.00,0.87
8393.00,0.88
8392.00,0.88
8391.00,0.88
8390.00,0.88
8389.00,0.88
8388.00,0.88
8387.00,0.88
8386.00,0.88
8385.00,0.88
8384.00,0.88
8383.00,0.88
8382.00,0.88
8381.00,0.88
8380.00,0.88
8379.00,0.88
8378.00,0.88
8377.00,0.88
8376.00,0.88
8375.00,0.88
8374.00,0.89
8373.00,0.89
8372.00,0.89
8371.00,0.89
8370.00,0.89
8369.00,0.89
8368.00,0.89
8367.00,0.89
8366.00,0.89
8365.00,0.89
8364.00,0.89
8363.00,0.89
8362.00,0.89
8361.00,0.89
8360.00,0.89
8359.00,0.89
8358.00,0.89
8357.00,0.89
8356.00,0.89
8355.00,0.89
8354.00,0.89
8353.00,0.89
8352.00,0.89
8351.00,0.89
8350.00,0.89
8349.00,0.89
8348.00,0.89
8347.00,0.89
8346.00,0.89
8345.00,0.89
8344.00,0.89
8343.00,0.89
8342.00,0.89
8341.00,0.89
8340.00,0.89
8339.00,0.89
8338.00,0.89
8337.00,0.89
8336.00,0.89
8335.00,0.89
8334.00,0.89
8333.00,0.89
8332.00,0.89
8331.00,0.89
8330.00,0.89
8329.00,0.89
8328.00,0.89
8327.00,0.89
8326.00,0.89
8325.00,0.89
8324.00,0.89
8323.00,0.89
8322.00,0.89
8321.00,0.89
8320.00,0.89
8319.00,0.88
8318.00,0.88
8317.00,0.88
8316.00,0.88
8315.00,0.88
8314.00,0.88
8313.00,0.89
8312.00,0.89
8311.00,0.89
8310.00,0.89
8309.00,0.89
8308.00,0.89
8307.00,0.89
8306.00,0.89
8305.00,0.89
8304.00,0.89
8303.00,0.89
8302.00,0.89
8301.00,0.89
8300.00,0.89
8299.00,0.89
8298.00,0.89
8297.00,0.89
8296.00,0.89
8295.00,0.89
8294.00,0.89
8293.00,0.89
8292.00,0.89
8291.00,0.89
8290.00,0.89
8289.00,0.89
8288.00,0.89
8287.00,0.89
8286.00,0.89
8285.00,0.89
8284.00,0.90
8283.00,0.90
8282.00,0.90
8281.00,0.90
8280.00,0.90
8279.00,0.90
8278.00,0.90
8277.00,0.90
8276.00,0.90
8275.00,0.90
8274.00,0.90
8273.00,0.90
8272.00,0.90
8271.00,0.90
8270.00,0.90
8269.00,0.90
8268.00,0.90
8267.00,0.90
8266.00,0.90
8265.00,0.90
8264.00,0.90
8263.00,0.90
8262.00,0.90
8261.00,0.90
8260.00,0.90
8259.00,0.90
8258.00,0.90
8257.00,0.90
8256.00,0.90
8255.00,0.90
8254.00,0.90
8253.00,0.90
8252.00,0.90
8251.00,0.90
8250.00,0.90
8249.00,0.90
8248.00,0.90
8247.00,0.90
8246.00,0.90
8245.00,0.90
8244.00,0.90
8243.00,0.90
8242.00,0.90
8241.00,0.90
8240.00,0.90
8239.00,0.91
8238.00,0.91
8237.00,0.91
8236.00,0.91
8235.00,0.91
8234.00,0.91
8233.00,0.91
8232.00,0.91
8231.00,0.91
8230.00,0.91
8229.00,0.91
8228.00,0.91
8227.00,0.91
8226.00,0.91
8225.00,0.91
8224.00,0.91
8223.00,0.91
8222.00,0.91
8221.00,0.91
8220.00,0.91
8219.00,0.91
8218.00,0.91
8217.00,0.91
8216.00,0.91
8215.00,0.91
8214.00,0.91
8213.00,0.91
8212.00,0.91
8211.00,0.91
8210.00,0.91
8209.00,0.91
8208.00,0.91
8207.00,0.91
8206.00,0.91
8205.00,0.91
8204.00,0.91
8203.00,0.91
8202.00,0.91
8201.00,0.91
8200.00,0.91
8199.00,0.91
8198.00,0.91
8197.00,0.91
8196.00,0.91
8195.00,0.91
8194.00,0.91
8193.00,0.91
8192.00,0.91
8191.00,0.91
8190.00,0.91
8189.00,0.91
8188.00,0.91
8187.00,0.91
8186.00,0.91
8185.00,0.91
8184.00,0.91
8183.00,0.91
8182.00,0.92
8181.00,0.92
8180.00,0.92
8179.00,0.92
8178.00,0.92
8177.00,0.92
8176.00,0.92
8175.00,0.92
8174.00,0.93
8173.00,0.93
8172.00,0.93
8171.00,0.93
8170.00,0.93
8169.00,0.93
8168.00,0.93
8167.00,0.93
8166.00,0.93
8165.00,0.93
8164.00,0.94
8163.00,0.94
8162.00,0.94
8161.00,0.94
8160.00,0.94
8159.00,0.93
8158.00,0.93
8157.00,0.93
8156.00,0.93
8155.00,0.93
8154.00,0.93
8153.00,0.93
8152.00,0.93
8151.00,0.93
8150.00,0.93
8149.00,0.93
8148.00,0.93
8147.00,0.93
8146.00,0.93
8145.00,0.93
8144.00,0.93
8143.00,0.93
8142.00,0.93
8141.00,0.93
8140.00,0.93
8139.00,0.93
8138.00,0.93
8137.00,0.94
8136.00,0.94
8135.00,0.94
8134.00,0.94
8133.00,0.94
8132.00,0.94
8131.00,0.94
8130.00,0.95
8129.00,0.95
8128.00,0.95
8127.00,0.95
8126.00,0.95
8125.00,0.95
8124.00,0.95
8123.00,0.95
8122.00,0.95
8121.00,0.95
8120.00,0.95
8119.00,0.95
8118.00,0.95
8117.00,0.95
8116.00,0.94
8115.00,0.94
8114.00,0.94
8113.00,0.94
8112.00,0.94
8111.00,0.94
8110.00,0.94
8109.00,0.94
8108.00,0.94
8107.00,0.94
8106.00,0.94
8105.00,0.94
8104.00,0.94
8103.00,0.94
8102.00,0.94
8101.00,0.94
8100.00,0.94
8099.00,0.94
8098.00,0.94
8097.00,0.94
8096.00,0.94
8095.00,0.94
8094.00,0.94
8093.00,0.94
8092.00,0.94
8091.00,0.94
8090.00,0.94
8089.00,0.94
8088.00,0.94
8087.00,0.94
8086.00,0.94
8085.00,0.94
8084.00,0.94
8083.00,0.95
8082.00,0.95
8081.00,0.95
8080.00,0.95
8079.00,0.95
8078.00,0.95
8077.00,0.95
8076.00,0.95
8075.00,0.95
8074.00,0.95
8073.00,0.95
8072.00,0.95
8071.00,0.95
8070.00,0.95
8069.00,0.96
8068.00,0.96
8067.00,0.96
8066.00,0.96
8065.00,0.96
8064.00,0.96
8063.00,0.96
8062.00,0.96
8061.00,0.96
8060.00,0.96
8059.00,0.96
8058.00,0.96
8057.00,0.96
8056.00,0.96
8055.00,0.96
8054.00,0.96
8053.00,0.96
8052.00,0.96
8051.00,0.96
8050.00,0.96
8049.00,0.96
8048.00,0.96
8047.00,0.96
8046.00,0.96
8045.00,0.96
8044.00,0.96
8043.00,0.96
8042.00,0.96
8041.00,0.96
8040.00,0.96
8039.00,0.96
8038.00,0.96
8037.00,0.96
8036.00,0.96
8035.00,0.96
8034.00,0.96
8033.00,0.96
8032.00,0.97
8031.00,0.97
8030.00,0.97
8029.00,0.97
8028.00,0.97
8027.00,0.97
8026.00,0.97
8025.00,0.97
8024.00,0.97
8023.00,0.98
8022.00,0.98
8021.00,0.98
8020.00,0.98
8019.00,0.98
8018.00,0.98
8017.00,0.98
8016.00,0.98
8015.00,0.98
8014.00,0.97
8013.00,0.97
8012.00,0.97
8011.00,0.97
8010.00,0.97
8009.00,0.97
8008.00,0.97
8007.00,0.97
8006.00,0.97
8005.00,0.97
8004.00,0.96
8003.00,0.96
8002.00,0.96
8001.00,0.96
8000.00,0.96
7999.00,0.96
7998.00,0.96
7997.00,0.96
7996.00,0.96
7995.00,0.96
7994.00,0.97
7993.00,0.97
7992.00,0.97
7991.00,0.97
7990.00,0.97
7989.00,0.97
7988.00,0.97
7987.00,0.97
7986.00,0.97
7985.00,0.97
7984.00,0.97
7983.00,0.97
7982.00,0.97
7981.00,0.97
7980.00,0.97
7979.00,0.97
7978.00,0.97
7977.00,0.97
7976.00,0.97
7975.00,0.97
7974.00,0.97
7973.00,0.97
7972.00,0.97
7971.00,0.97
7970.00,0.97
7969.00,0.97
7968.00,0.97
7967.00,0.97
7966.00,0.97
7965.00,0.97
7964.00,0.97
7963.00,0.97
7962.00,0.97
7961.00,0.97
7960.00,0.97
7959.00,0.97
7958.00,0.97
7957.00,0.97
7956.00,0.97
7955.00,0.97
7954.00,0.97
7953.00,0.97
7952.00,0.97
7951.00,0.97
7950.00,0.97
7949.00,0.97
7948.00,0.97
7947.00,0.97
7946.00,0.97
7945.00,0.97
7944.00,0.97
7943.00,0.98
7942.00,0.98
7941.00,0.98
7940.00,0.98
7939.00,0.98
7938.00,0.98
7937.00,0.98
7936.00,0.98
7935.00,0.98
7934.00,0.98
7933.00,0.98
7932.00,0.98
7931.00,0.98
7930.00,0.98
7929.00,0.98
7928.00,0.98
7927.00,0.98
7926.00,0.98
7925.00,0.98
7924.00,0.98
7923.00,0.98
7922.00,0.98
7921.00,0.98
7920.00,0.98
7919.00,0.99
7918.00,0.99
7917.00,0.99
7916.00,0.99
7915.00,0.99
7914.00,0.99
7913.00,0.99
7912.00,0.99
7911.00,0.99
7910.00,0.99
7909.00,0.99
7908.00,0.99
7907.00,0.99
7906.00,0.99
7905.00,0.99
7904.00,0.99
7903.00,0.99
7902.00,0.99
7901.00,0.98
7900.00,0.98
7899.00,0.98
7898.00,0.98
7897.00,0.98
7896.00,0.98
7895.00,0.98
7894.00,0.98
7893.00,0.98
7892.00,0.98
7891.00,0.98
7890.00,0.98
7889.00,0.98
7888.00,0.98
7887.00,0.98
7886.00,0.98
7885.00,0.98
7884.00,0.98
7883.00,0.98
7882.00,0.98
7881.00,0.98
7880.00,0.98
7879.00,0.98
7878.00,0.98
7877.00,0.98
7876.00,0.98
7875.00,0.98
7874.00,0.98
7873.00,0.98
7872.00,0.98
7871.00,0.98
7870.00,0.98
7869.00,0.98
7868.00,0.98
7867.00,0.98
7866.00,0.98
7865.00,0.98
7864.00,0.98
7863.00,0.98
7862.00,0.98
7861.00,0.98
7860.00,0.98
7859.00,0.98
7858.00,0.98
7857.00,0.98
7856.00,0.98
7855.00,0.98
7854.00,0.98
7853.00,0.98
7852.00,0.98
7851.00,0.98
7850.00,0.98
7849.00,0.98
7848.00,0.98
7847.00,0.98
7846.00,0.98
7845.00,0.98
7844.00,0.98
7843.00,0.98
7842.00,0.99
7841.00,0.99
7840.00,0.99
7839.00,0.99
7838.00,0.99
7837.00,0.99
7836.00,0.99
7835.00,0.99
7834.00,0.99
7833.00,0.99
7832.00,0.99
7831.00,0.99
7830.00,0.99
7829.00,0.99
7828.00,0.99
7827.00,0.99
7826.00,0.99
7825.00,0.99
7824.00,0.99
7823.00,0.99
7822.00,0.99
7821.00,0.99
7820.00,0.99
7819.00,0.99
7818.00,0.99
7817.00,0.99
7816.00,0.99
7815.00,0.99
7814.00,0.99
7813.00,0.99
7812.00,0.99
7811.00,0.99
7810.00,0.99
7809.00,0.99
7808.00,0.99
7807.00,0.99
7806.00,0.99
7805.00,1.00
7804.00,1.00
7803.00,1.00
7802.00,1.00
7801.00,1.00
7800.00,1.00
7799.00,1.00
7798.00,1.00
7797.00,1.00
7796.00,1.00
7795.00,1.00
7794.00,1.00
7793.00,1.00
7792.00,1.00
7791.00,1.00
7790.00,1.00
7789.00,1.00
7788.00,1.00
7787.00,1.00
7786.00,1.00
7785.00,1.00
7784.00,1.00
7783.00,1.00
7782.00,1.00
7781.00,1.00
7780.00,1.00
7779.00,1.00
7778.00,1.00
7777.00,1.00
7776.00,1.00
7775.00,1.00
7774.00,1.00
7773.00,1.00
7772.00,1.00
7771.00,1.00
7770.00,1.00
7769.00,1.00
7768.00,1.00
7767.00,1.00
7766.00,1.00
7765.00,1.00
7764.00,1.00
7763.00,1.00
7762.00,1.00
7761.00,1.00
7760.00,1.00
7759.00,1.00
7758.00,1.00
7757.00,1.00
7756.00,1.00
7755.00,1.00
7754.00,1.00
7753.00,1.00
7752.00,1.00
7751.00,1.00
7750.00,1.00
7749.00,1.00
7748.00,1.00
7747.00,0.99
7746.00,0.99
7745.00,0.99
7744.00,0.99
7743.00,0.99
7742.00,0.99
7741.00,0.99
7740.00,0.99
7739.00,0.99
7738.00,0.99
7737.00,0.99
7736.00,1.00
7735.00,1.00
7734.00,1.00
7733.00,1.00
7732.00,1.00
7731.00,1.00
7730.00,1.00
7729.00,1.00
7728.00,0.99
7727.00,0.99
7726.00,0.99
7725.00,0.99
7724.00,0.99
7723.00,0.99
7722.00,0.99
7721.00,0.99
7720.00,0.99
7719.00,0.99
7718.00,0.99
7717.00,0.99
7716.00,0.99
7715.00,0.99
7714.00,0.99
7713.00,0.99
7712.00,0.99
7711.00,0.99
7710.00,0.99
7709.00,1.00
7708.00,1.00
7707.00,1.00
7706.00,1.00
7705.00,1.00
7704.00,1.00
7703.00,0.99
7702.00,0.99
7701.00,0.99
7700.00,0.99
7699.00,0.99
7698.00,0.99
7697.00,0.99
7696.00,0.99
7695.00,0.99
7694.00,0.99
7693.00,0.99
7692.00,0.99
7691.00,0.99
7690.00,0.99
7689.00,0.99
7688.00,0.99
7687.00,0.99
7686.00,0.99
7685.00,0.99
7684.00,0.99
7683.00,0.99
7682.00,0.99
7681.00,1.00
7680.00,1.00
7679.00,1.00
7678.00,1.00
7677.00,1.00
7676.00,1.00
7675.00,1.00
7674.00,1.00
7673.00,1.00
7672.00,1.00
7671.00,1.00
7670.00,1.00
7669.00,1.00
7668.00,1.00
7667.00,0.99
7666.00,0.99
7665.00,0.99
7664.00,0.99
7663.00,0.99
7662.00,0.99
7661.00,0.99
7660.00,0.99
7659.00,0.99
7658.00,0.99
7657.00,0.99
7656.00,0.99
7655.00,0.99
7654.00,0.99
7653.00,0.99
7652.00,0.99
7651.00,0.99
7650.00,0.99
7649.00,0.99
7648.00,0.99
7647.00,0.99
7646.00,0.99
7645.00,0.99
7644.00,0.99
7643.00,0.99
7642.00,1.00
7641.00,1.00
7640.00,1.00
7639.00,1.00
7638.00,1.00
7637.00,1.00
7636.00,1.00
7635.00,1.00
7634.00,1.00
7633.00,1.00
7632.00,1.00
7631.00,1.00
7630.00,1.00
7629.00,1.00
7628.00,1.00
7627.00,1.00
7626.00,1.00
7625.00,1.00
7624.00,1.00
7623.00,1.00
7622.00,1.00
7621.00,1.00
7620.00,1.00
7619.00,1.00
7618.00,1.00
7617.00,1.00
7616.00,1.00
7615.00,1.00
7614.00,1.00
7613.00,1.00
7612.00,1.00
7611.00,1.00
7610.00,1.00
7609.00,1.00
7608.00,1.00
7607.00,1.00
7606.00,1.00
7605.00,0.99
7604.00,0.99
7603.00,0.99
7602.00,0.99
7601.00,0.99
7600.00,0.99
7599.00,0.99
7598.00,0.99
7597.00,0.99
7596.00,0.99
7595.00,0.99
7594.00,0.99
7593.00,0.99
7592.00,0.99
7591.00,0.99
7590.00,0.99
7589.00,0.99
7588.00,0.99
7587.00,0.99
7586.00,0.99
7585.00,0.99
7584.00,0.99
7583.00,0.99
7582.00,0.99
7581.00,0.99
7580.00,0.99
7579.00,0.99
7578.00,0.99
7577.00,0.99
7576.00,1.00
7575.00,1.00
7574.00,1.00
7573.00,1.00
7572.00,1.00
7571.00,1.00
7570.00,1.00
7569.00,1.00
7568.00,1.00
7567.00,1.00
7566.00,1.00
7565.00,0.99
7564.00,0.99
7563.00,0.99
7562.00,0.99
7561.00,0.99
7560.00,0.99
7559.00,0.99
7558.00,0.99
7557.00,0.99
7556.00,0.99
7555.00,0.99
7554.00,0.99
7553.00,0.99
7552.00,0.99
7551.00,0.99
7550.00,0.99
7549.00,0.99
7548.00,0.99
7547.00,0.99
7546.00,0.99
7545.00,0.99
7544.00,0.99
7543.00,0.99
7542.00,0.99
7541.00,0.99
7540.00,0.99
7539.00,0.99
7538.00,0.99
7537.00,0.99
7536.00,0.99
7535.00,0.99
7534.00,0.99
7533.00,0.99
7532.00,0.99
7531.00,0.99
7530.00,0.99
7529.00,0.99
7528.00,0.99
7527.00,0.99
7526.00,0.99
7525.00,0.99
7524.00,0.99
7523.00,0.99
7522.00,0.99
7521.00,0.99
7520.00,0.99
7519.00,0.99
7518.00,0.99
7517.00,0.99
7516.00,0.99
7515.00,0.99
7514.00,0.98
7513.00,0.98
7512.00,0.98
7511.00,0.98
7510.00,0.98
7509.00,0.98
7508.00,0.98
7507.00,0.98
7506.00,0.98
7505.00,0.98
7504.00,0.98
7503.00,0.98
7502.00,0.98
7501.00,0.97
7500.00,0.97
7499.00,0.97
7498.00,0.97
7497.00,0.97
7496.00,0.97
7495.00,0.97
7494.00,0.97
7493.00,0.97
7492.00,0.97
7491.00,0.97
7490.00,0.97
7489.00,0.97
7488.00,0.97
7487.00,0.97
7486.00,0.97
7485.00,0.97
7484.00,0.97
7483.00,0.97
7482.00,0.97
7481.00,0.97
7480.00,0.97
7479.00,0.96
7478.00,0.96
7477.00,0.96
7476.00,0.96
7475.00,0.96
7474.00,0.96
7473.00,0.96
7472.00,0.96
7471.00,0.96
7470.00,0.96
7469.00,0.96
7468.00,0.96
7467.00,0.96
7466.00,0.96
7465.00,0.96
7464.00,0.96
7463.00,0.96
7462.00,0.96
7461.00,0.96
7460.00,0.96
7459.00,0.96
7458.00,0.96
7457.00,0.96
7456.00,0.95
7455.00,0.95
7454.00,0.95
7453.00,0.95
7452.00,0.95
7451.00,0.95
7450.00,0.95
7449.00,0.95
7448.00,0.95
7447.00,0.95
7446.00,0.95
7445.00,0.95
7444.00,0.95
7443.00,0.95
7442.00,0.95
7441.00,0.95
7440.00,0.95
7439.00,0.95
7438.00,0.95
7437.00,0.95
7436.00,0.95
7435.00,0.95
7434.00,0.95
7433.00,0.95
7432.00,0.95
7431.00,0.95
7430.00,0.95
7429.00,0.95
7428.00,0.95
7427.00,0.95
7426.00,0.95
7425.00,0.95
7424.00,0.95
7423.00,0.94
7422.00,0.94
7421.00,0.94
7420.00,0.94
7419.00,0.94
7418.00,0.94
7417.00,0.94
7416.00,0.94
7415.00,0.94
7414.00,0.94
7413.00,0.94
7412.00,0.94
7411.00,0.93
7410.00,0.93
7409.00,0.93
7408.00,0.93
7407.00,0.93
7406.00,0.93
7405.00,0.93
7404.00,0.93
7403.00,0.93
7402.00,0.93
7401.00,0.93
7400.00,0.93
7399.00,0.93
7398.00,0.93
7397.00,0.92
7396.00,0.92
7395.00,0.92
7394.00,0.92
7393.00,0.92
7392.00,0.92
7391.00,0.92
7390.00,0.92
7389.00,0.92
7388.00,0.92
7387.00,0.92
7386.00,0.92
7385.00,0.92
7384.00,0.92
7383.00,0.92
7382.00,0.91
7381.00,0.91
7380.00,0.91
7379.00,0.91
7378.00,0.91
7377.00,0.91
7376.00,0.91
7375.00,0.91
7374.00,0.91
7373.00,0.91
7372.00,0.91
7371.00,0.91
7370.00,0.91
7369.00,0.91
7368.00,0.91
7367.00,0.91
7366.00,0.91
7365.00,0.91
7364.00,0.91
7363.00,0.91
7362.00,0.91
7361.00,0.91
7360.00,0.91
7359.00,0.90
7358.00,0.90
7357.00,0.90
7356.00,0.90
7355.00,0.90
7354.00,0.90
7353.00,0.90
7352.00,0.90
7351.00,0.90
7350.00,0.90
7349.00,0.90
7348.00,0.90
7347.00,0.90
7346.00,0.90
7345.00,0.90
7344.00,0.89
7343.00,0.89
7342.00,0.89
7341.00,0.89
7340.00,0.89
7339.00,0.89
7338.00,0.89
7337.00,0.89
7336.00,0.89
7335.00,0.89
7334.00,0.89
7333.00,0.89
7332.00,0.89
7331.00,0.89
7330.00,0.89
7329.00,0.89
7328.00,0.89
7327.00,0.89
7326.00,0.89
7325.00,0.89
7324.00,0.89
7323.00,0.89
7322.00,0.89
7321.00,0.89
7320.00,0.90
7319.00,0.90
7318.00,0.90
7317.00,0.90
7316.00,0.90
7315.00,0.90
7314.00,0.90
7313.00,0.90
7312.00,0.90
7311.00,0.90
7310.00,0.90
7309.00,0.90
7308.00,0.89
7307.00,0.89
7306.00,0.89
7305.00,0.89
7304.00,0.89
7303.00,0.89
7302.00,0.89
7301.00,0.89
7300.00,0.89
7299.00,0.89
7298.00,0.89
7297.00,0.89
7296.00,0.88
7295.00,0.88
7294.00,0.88
7293.00,0.88
7292.00,0.88
7291.00,0.88
7290.00,0.88
7289.00,0.88
7288.00,0.88
7287.00,0.87
7286.00,0.87
7285.00,0.87
7284.00,0.87
7283.00,0.87
7282.00,0.87
7281.00,0.87
7280.00,0.87
7279.00,0.87
7278.00,0.87
7277.00,0.86
7276.00,0.86
7275.00,0.86
7274.00,0.86
7273.00,0.86
7272.00,0.86
7271.00,0.86
7270.00,0.86
7269.00,0.86
7268.00,0.86
7267.00,0.86
7266.00,0.86
7265.00,0.86
7264.00,0.86
7263.00,0.85
7262.00,0.85
7261.00,0.85
7260.00,0.85
7259.00,0.85
7258.00,0.85
7257.00,0.85
7256.00,0.85
7255.00,0.85
7254.00,0.84
7253.00,0.84
7252.00,0.84
7251.00,0.84
7250.00,0.84
7249.00,0.84
7248.00,0.83
7247.00,0.83
7246.00,0.83
7245.00,0.83
7244.00,0.83
7243.00,0.83
7242.00,0.83
7241.00,0.82
7240.00,0.82
7239.00,0.82
7238.00,0.82
7237.00,0.82
7236.00,0.81
7235.00,0.81
7234.00,0.81
7233.00,0.81
7232.00,0.81
7231.00,0.80
7230.00,0.80
7229.00,0.80
7228.00,0.80
7227.00,0.79
7226.00,0.79
7225.00,0.79
7224.00,0.78
7223.00,0.78
7222.00,0.78
7221.00,0.78
7220.00,0.77
7219.00,0.77
7218.00,0.77
7217.00,0.77
7216.00,0.76
7215.00,0.76
7214.00,0.76
7213.00,0.76
7212.00,0.75
7211.00,0.75
7210.00,0.75
7209.00,0.75
7208.00,0.75
7207.00,0.74
7206.00,0.74
7205.00,0.74
7204.00,0.74
7203.00,0.74
7202.00,0.74
7201.00,0.73
7200.00,0.73
7199.00,0.73
7198.00,0.73
7197.00,0.73
7196.00,0.72
7195.00,0.72
7194.00,0.72
7193.00,0.71
7192.00,0.71
7191.00,0.71
7190.00,0.70
7189.00,0.70
7188.00,0.70
7187.00,0.69
7186.00,0.69
7185.00,0.69
7184.00,0.69
7183.00,0.68
7182.00,0.68
7181.00,0.68
7180.00,0.67
7179.00,0.67
7178.00,0.67
7177.00,0.67
7176.00,0.67
7175.00,0.66
7174.00,0.66
7173.00,0.66
7172.00,0.66
7171.00,0.65
7170.00,0.65
7169.00,0.65
7168.00,0.65
7167.00,0.65
7166.00,0.64
7165.00,0.64
7164.00,0.64
7163.00,0.64
7162.00,0.64
7161.00,0.64
7160.00,0.63
7159.00,0.63
7158.00,0.63
7157.00,0.63
7156.00,0.63
7155.00,0.63
7154.00,0.63
7153.00,0.63
7152.00,0.62
7151.00,0.62
7150.00,0.62
7149.00,0.62
7148.00,0.62
7147.00,0.62
7146.00,0.62
7145.00,0.62
7144.00,0.61
7143.00,0.61
7142.00,0.61
7141.00,0.61
7140.00,0.61
7139.00,0.60
7138.00,0.60
7137.00,0.60
7136.00,0.60
7135.00,0.60
7134.00,0.60
7133.00,0.59
7132.00,0.59
7131.00,0.59
7130.00,0.59
7129.00,0.59
7128.00,0.58
7127.00,0.58
7126.00,0.58
7125.00,0.58
7124.00,0.58
7123.00,0.57
7122.00,0.57
7121.00,0.57
7120.00,0.57
7119.00,0.57
7118.00,0.56
7117.00,0.56
7116.00,0.56
7115.00,0.56
7114.00,0.56
7113.00,0.56
7112.00,0.55
7111.00,0.55
7110.00,0.55
7109.00,0.55
7108.00,0.55
7107.00,0.55
7106.00,0.55
7105.00,0.54
7104.00,0.54
7103.00,0.54
7102.00,0.54
7101.00,0.54
7100.00,0.54
7099.00,0.54
7098.00,0.53
7097.00,0.53
7096.00,0.53
7095.00,0.53
7094.00,0.53
7093.00,0.52
7092.00,0.52
7091.00,0.52
7090.00,0.52
7089.00,0.52
7088.00,0.52
7087.00,0.51
7086.00,0.51
7085.00,0.51
7084.00,0.51
7083.00,0.51
7082.00,0.51
7081.00,0.51
7080.00,0.51
7079.00,0.51
7078.00,0.51
7077.00,0.51
7076.00,0.50
7075.00,0.50
7074.00,0.50
7073.00,0.50
7072.00,0.50
7071.00,0.50
7070.00,0.50
7069.00,0.50
7068.00,0.50
7067.00,0.50
7066.00,0.50
7065.00,0.49
7064.00,0.49
7063.00,0.49
7062.00,0.49
7061.00,0.49
7060.00,0.49
7059.00,0.49
7058.00,0.48
7057.00,0.48
7056.00,0.48
7055.00,0.48
7054.00,0.48
7053.00,0.48
7052.00,0.47
7051.00,0.47
7050.00,0.47
7049.00,0.47
7048.00,0.47
7047.00,0.47
7046.00,0.47
7045.00,0.46
7044.00,0.46
7043.00,0.46
7042.00,0.46
7041.00,0.46
7040.00,0.46
7039.00,0.46
7038.00,0.46
7037.00,0.46
7036.00,0.46
7035.00,0.46
7034.00,0.45
7033.00,0.45
7032.00,0.45
7031.00,0.45
7030.00,0.45
7029.00,0.45
7028.00,0.45
7027.00,0.45
7026.00,0.45
7025.00,0.45
7024.00,0.45
7023.00,0.45
7022.00,0.45
7021.00,0.45
7020.00,0.45
7019.00,0.45
7018.00,0.45
7017.00,0.44
7016.00,0.44
7015.00,0.44
7014.00,0.44
7013.00,0.44
7012.00,0.44
7011.00,0.44
7010.00,0.44
7009.00,0.44
7008.00,0.44
7007.00,0.44
7006.00,0.43
7005.00,0.43
7004.00,0.43
7003.00,0.43
7002.00,0.43
7001.00,0.43
7000.00,0.43
6999.00,0.43
6998.00,0.43
6997.00,0.43
6996.00,0.43
6995.00,0.43
6994.00,0.43
6993.00,0.43
6992.00,0.43
6991.00,0.43
6990.00,0.43
6989.00,0.43
6988.00,0.42
6987.00,0.42
6986.00,0.42
6985.00,0.42
6984.00,0.42
6983.00,0.42
6982.00,0.42
6981.00,0.42
6980.00,0.42
6979.00,0.42
6978.00,0.42
6977.00,0.42
6976.00,0.42
6975.00,0.42
6974.00,0.42
6973.00,0.42
6972.00,0.42
6971.00,0.42
6970.00,0.42
6969.00,0.42
6968.00,0.42
6967.00,0.42
6966.00,0.42
6965.00,0.42
6964.00,0.42
6963.00,0.42
6962.00,0.42
6961.00,0.42
6960.00,0.42
6959.00,0.42
6958.00,0.42
6957.00,0.42
6956.00,0.42
6955.00,0.42
6954.00,0.42
6953.00,0.42
6952.00,0.41
6951.00,0.41
6950.00,0.41
6949.00,0.41
6948.00,0.41
6947.00,0.41
6946.00,0.41
6945.00,0.41
6944.00,0.41
6943.00,0.41
6942.00,0.41
6941.00,0.41
6940.00,0.41
6939.00,0.41
6938.00,0.41
6937.00,0.41
6936.00,0.41
6935.00,0.41
6934.00,0.41
6933.00,0.41
6932.00,0.41
6931.00,0.41
6930.00,0.41
6929.00,0.41
6928.00,0.41
6927.00,0.41
6926.00,0.41
6925.00,0.41
6924.00,0.41
6923.00,0.41
6922.00,0.41
6921.00,0.41
6920.00,0.41
6919.00,0.41
6918.00,0.41
6917.00,0.41
6916.00,0.41
6915.00,0.41
6914.00,0.41
6913.00,0.41
6912.00,0.41
6911.00,0.41
6910.00,0.41
6909.00,0.41
6908.00,0.41
6907.00,0.41
6906.00,0.41
6905.00,0.40
6904.00,0.40
6903.00,0.40
6902.00,0.40
6901.00,0.40
6900.00,0.40
6899.00,0.40
6898.00,0.40
6897.00,0.40
6896.00,0.40
6895.00,0.40
6894.00,0.40
6893.00,0.40
6892.00,0.40
6891.00,0.40
6890.00,0.40
6889.00,0.41
6888.00,0.41
6887.00,0.41
6886.00,0.41
6885.00,0.41
6884.00,0.41
6883.00,0.41
6882.00,0.41
6881.00,0.41
6880.00,0.41
6879.00,0.41
6878.00,0.41
6877.00,0.41
6876.00,0.41
6875.00,0.41
6874.00,0.41
6873.00,0.41
6872.00,0.40
6871.00,0.40
6870.00,0.40
6869.00,0.40
6868.00,0.40
6867.00,0.40
6866.00,0.40
6865.00,0.40
6864.00,0.40
6863.00,0.40
6862.00,0.40
6861.00,0.40
6860.00,0.40
6859.00,0.40
6858.00,0.40
6857.00,0.40
6856.00,0.40
6855.00,0.40
6854.00,0.40
6853.00,0.40
6852.00,0.40
6851.00,0.40
6850.00,0.40
6849.00,0.40
6848.00,0.40
6847.00,0.40
6846.00,0.40
6845.00,0.40
6844.00,0.40
6843.00,0.40
6842.00,0.40
6841.00,0.40
6840.00,0.40
6839.00,0.40
6838.00,0.40
6837.00,0.40
6836.00,0.40
6835.00,0.40
6834.00,0.41
6833.00,0.41
6832.00,0.41
6831.00,0.41
6830.00,0.41
6829.00,0.41
6828.00,0.41
6827.00,0.41
6826.00,0.41
6825.00,0.41
6824.00,0.41
6823.00,0.41
6822.00,0.41
6821.00,0.41
6820.00,0.41
6819.00,0.41
6818.00,0.41
6817.00,0.41
6816.00,0.41
6815.00,0.41
6814.00,0.41
6813.00,0.41
6812.00,0.41
6811.00,0.41
6810.00,0.42
6809.00,0.42
6808.00,0.42
6807.00,0.42
6806.00,0.42
6805.00,0.42
6804.00,0.42
6803.00,0.42
6802.00,0.42
6801.00,0.42
6800.00,0.42
6799.00,0.42
6798.00,0.42
6797.00,0.42
6796.00,0.42
6795.00,0.42
6794.00,0.42
6793.00,0.42
6792.00,0.42
6791.00,0.42
6790.00,0.42
6789.00,0.42
6788.00,0.42
6787.00,0.42
6786.00,0.42
6785.00,0.42
6784.00,0.42
6783.00,0.42
6782.00,0.42
6781.00,0.42
6780.00,0.42
6779.00,0.42
6778.00,0.42
6777.00,0.42
6776.00,0.42
6775.00,0.42
6774.00,0.42
6773.00,0.42
6772.00,0.42
6771.00,0.42
6770.00,0.42
6769.00,0.42
6768.00,0.42
6767.00,0.42
6766.00,0.42
6765.00,0.42
6764.00,0.42
6763.00,0.42
6762.00,0.42
6761.00,0.42
6760.00,0.42
6759.00,0.42
6758.00,0.42
6757.00,0.42
6756.00,0.42
6755.00,0.42
6754.00,0.42
6753.00,0.42
6752.00,0.42
6751.00,0.42
6750.00,0.42
6749.00,0.42
6748.00,0.42
6747.00,0.42
6746.00,0.42
6745.00,0.42
6744.00,0.42
6743.00,0.42
6742.00,0.42
6741.00,0.43
6740.00,0.43
6739.00,0.43
6738.00,0.43
6737.00,0.43
6736.00,0.43
6735.00,0.43
6734.00,0.43
6733.00,0.43
6732.00,0.43
6731.00,0.43
6730.00,0.43
6729.00,0.43
6728.00,0.43
6727.00,0.43
6726.00,0.43
6725.00,0.43
6724.00,0.43
6723.00,0.44
6722.00,0.44
6721.00,0.44
6720.00,0.44
6719.00,0.44
6718.00,0.44
6717.00,0.44
6716.00,0.44
6715.00,0.44
6714.00,0.44
6713.00,0.44
6712.00,0.44
6711.00,0.44
6710.00,0.44
6709.00,0.44
6708.00,0.44
6707.00,0.44
6706.00,0.44
6705.00,0.44
6704.00,0.45
6703.00,0.45
6702.00,0.45
6701.00,0.45
6700.00,0.45
6699.00,0.45
6698.00,0.45
6697.00,0.45
6696.00,0.45
6695.00,0.45
6694.00,0.45
6693.00,0.45
6692.00,0.45
6691.00,0.46
6690.00,0.46
6689.00,0.46
6688.00,0.46
6687.00,0.46
6686.00,0.46
6685.00,0.46
6684.00,0.46
6683.00,0.46
6682.00,0.46
6681.00,0.47
6680.00,0.47
6679.00,0.47
6678.00,0.47
6677.00,0.47
6676.00,0.47
6675.00,0.47
6674.00,0.47
6673.00,0.47
6672.00,0.48
6671.00,0.48
6670.00,0.48
6669.00,0.48
6668.00,0.48
6667.00,0.48
6666.00,0.48
6665.00,0.48
6664.00,0.48
6663.00,0.48
6662.00,0.48
6661.00,0.48
6660.00,0.48
6659.00,0.48
6658.00,0.48
6657.00,0.48
6656.00,0.48
6655.00,0.48
6654.00,0.48
6653.00,0.48
6652.00,0.48
6651.00,0.48
6650.00,0.48
6649.00,0.48
6648.00,0.48
6647.00,0.48
6646.00,0.48
6645.00,0.49
6644.00,0.49
6643.00,0.49
6642.00,0.49
6641.00,0.49
6640.00,0.49
6639.00,0.49
6638.00,0.49
6637.00,0.49
6636.00,0.49
6635.00,0.49
6634.00,0.49
6633.00,0.49
6632.00,0.49
6631.00,0.49
6630.00,0.49
6629.00,0.49
6628.00,0.50
6627.00,0.50
6626.00,0.50
6625.00,0.50
6624.00,0.50
6623.00,0.50
6622.00,0.50
6621.00,0.50
6620.00,0.50
6619.00,0.50
6618.00,0.50
6617.00,0.50
6616.00,0.50
6615.00,0.50
6614.00,0.50
6613.00,0.51
6612.00,0.51
6611.00,0.51
6610.00,0.51
6609.00,0.51
6608.00,0.51
6607.00,0.51
6606.00,0.51
6605.00,0.51
6604.00,0.51
6603.00,0.51
6602.00,0.51
6601.00,0.51
6600.00,0.51
6599.00,0.52
6598.00,0.52
6597.00,0.52
6596.00,0.52
6595.00,0.52
6594.00,0.52
6593.00,0.52
6592.00,0.52
6591.00,0.52
6590.00,0.52
6589.00,0.52
6588.00,0.52
6587.00,0.52
6586.00,0.52
6585.00,0.52
6584.00,0.52
6583.00,0.52
6582.00,0.52
6581.00,0.52
6580.00,0.53
6579.00,0.53
6578.00,0.53
6577.00,0.53
6576.00,0.53
6575.00,0.53
6574.00,0.53
6573.00,0.53
6572.00,0.53
6571.00,0.53
6570.00,0.53
6569.00,0.53
6568.00,0.53
6567.00,0.53
6566.00,0.53
6565.00,0.54
6564.00,0.54
6563.00,0.54
6562.00,0.54
6561.00,0.54
6560.00,0.54
6559.00,0.54
6558.00,0.54
6557.00,0.54
6556.00,0.54
6555.00,0.55
6554.00,0.55
6553.00,0.55
6552.00,0.55
6551.00,0.55
6550.00,0.55
6549.00,0.55
6548.00,0.55
6547.00,0.55
6546.00,0.55
6545.00,0.55
6544.00,0.55
6543.00,0.55
6542.00,0.55
6541.00,0.55
6540.00,0.55
6539.00,0.55
6538.00,0.55
6537.00,0.55
6536.00,0.55
6535.00,0.55
6534.00,0.55
6533.00,0.55
6532.00,0.56
6531.00,0.56
6530.00,0.56
6529.00,0.56
6528.00,0.56
6527.00,0.56
6526.00,0.56
6525.00,0.56
6524.00,0.56
6523.00,0.56
6522.00,0.56
6521.00,0.56
6520.00,0.56
6519.00,0.56
6518.00,0.56
6517.00,0.56
6516.00,0.56
6515.00,0.56
6514.00,0.56
6513.00,0.56
6512.00,0.56
6511.00,0.56
6510.00,0.56
6509.00,0.56
6508.00,0.56
6507.00,0.56
6506.00,0.56
6505.00,0.56
6504.00,0.56
6503.00,0.56
6502.00,0.56
6501.00,0.56
6500.00,0.56
6499.00,0.57
6498.00,0.57
6497.00,0.57
6496.00,0.57
6495.00,0.57
6494.00,0.57
6493.00,0.57
6492.00,0.57
6491.00,0.57
6490.00,0.57
6489.00,0.57
6488.00,0.57
6487.00,0.57
6486.00,0.57
6485.00,0.57
6484.00,0.57
6483.00,0.57
6482.00,0.57
6481.00,0.57
6480.00,0.57
6479.00,0.58
6478.00,0.58
6477.00,0.58
6476.00,0.58
6475.00,0.58
6474.00,0.58
6473.00,0.58
6472.00,0.58
6471.00,0.58
6470.00,0.58
6469.00,0.58
6468.00,0.58
6467.00,0.58
6466.00,0.58
6465.00,0.58
6464.00,0.58
6463.00,0.58
6462.00,0.58
6461.00,0.58
6460.00,0.58
6459.00,0.58
6458.00,0.58
6457.00,0.58
6456.00,0.58
6455.00,0.59
6454.00,0.59
6453.00,0.59
6452.00,0.59
6451.00,0.59
6450.00,0.59
6449.00,0.59
6448.00,0.59
6447.00,0.59
6446.00,0.59
6445.00,0.59
6444.00,0.59
6443.00,0.59
6442.00,0.59
6441.00,0.59
6440.00,0.59
6439.00,0.59
6438.00,0.59
6437.00,0.59
6436.00,0.59
6435.00,0.59
6434.00,0.59
6433.00,0.59
6432.00,0.60
6431.00,0.60
6430.00,0.60
6429.00,0.60
6428.00,0.60
6427.00,0.60
6426.00,0.60
6425.00,0.60
6424.00,0.60
6423.00,0.60
6422.00,0.60
6421.00,0.60
6420.00,0.60
6419.00,0.60
6418.00,0.60
6417.00,0.60
6416.00,0.60
6415.00,0.60
6414.00,0.60
6413.00,0.60
6412.00,0.60
6411.00,0.60
6410.00,0.60
6409.00,0.60
6408.00,0.60
6407.00,0.60
6406.00,0.60
6405.00,0.61
6404.00,0.61
6403.00,0.61
6402.00,0.61
6401.00,0.61
6400.00,0.61
6399.00,0.61
6398.00,0.61
6397.00,0.61
6396.00,0.61
6395.00,0.62
6394.00,0.62
6393.00,0.62
6392.00,0.62
6391.00,0.62
6390.00,0.62
6389.00,0.62
6388.00,0.62
6387.00,0.62
6386.00,0.62
6385.00,0.62
6384.00,0.62
6383.00,0.62
6382.00,0.62
6381.00,0.62
6380.00,0.62
6379.00,0.62
6378.00,0.62
6377.00,0.62
6376.00,0.62
6375.00,0.62
6374.00,0.62
6373.00,0.62
6372.00,0.62
6371.00,0.62
6370.00,0.63
6369.00,0.63
6368.00,0.63
6367.00,0.63
6366.00,0.63
6365.00,0.63
6364.00,0.63
6363.00,0.63
6362.00,0.63
6361.00,0.63
6360.00,0.63
6359.00,0.63
6358.00,0.63
6357.00,0.63
6356.00,0.63
6355.00,0.63
6354.00,0.63
6353.00,0.63
6352.00,0.63
6351.00,0.63
6350.00,0.63
6349.00,0.63
6348.00,0.63
6347.00,0.63
6346.00,0.63
6345.00,0.64
6344.00,0.64
6343.00,0.64
6342.00,0.64
6341.00,0.64
6340.00,0.64
6339.00,0.64
6338.00,0.64
6337.00,0.64
6336.00,0.64
6335.00,0.64
6334.00,0.65
6333.00,0.65
6332.00,0.65
6331.00,0.65
6330.00,0.65
6329.00,0.65
6328.00,0.65
6327.00,0.65
6326.00,0.65
6325.00,0.65
6324.00,0.65
6323.00,0.65
6322.00,0.65
6321.00,0.65
6320.00,0.65
6319.00,0.65
6318.00,0.65
6317.00,0.65
6316.00,0.65
6315.00,0.65
6314.00,0.66
6313.00,0.66
6312.00,0.66
6311.00,0.66
6310.00,0.66
6309.00,0.66
6308.00,0.66
6307.00,0.66
6306.00,0.66
6305.00,0.66
6304.00,0.66
6303.00,0.66
6302.00,0.66
6301.00,0.66
6300.00,0.66
6299.00,0.66
6298.00,0.66
6297.00,0.67
6296.00,0.67
6295.00,0.67
6294.00,0.67
6293.00,0.67
6292.00,0.67
6291.00,0.67
6290.00,0.67
6289.00,0.67
6288.00,0.67
6287.00,0.67
6286.00,0.67
6285.00,0.68
6284.00,0.68
6283.00,0.68
6282.00,0.68
6281.00,0.68
6280.00,0.68
6279.00,0.68
6278.00,0.68
6277.00,0.68
6276.00,0.68
6275.00,0.68
6274.00,0.68
6273.00,0.69
6272.00,0.69
6271.00,0.69
6270.00,0.69
6269.00,0.69
6268.00,0.69
6267.00,0.69
6266.00,0.69
6265.00,0.69
6264.00,0.69
6263.00,0.69
6262.00,0.70
6261.00,0.70
6260.00,0.70
6259.00,0.70
6258.00,0.70
6257.00,0.70
6256.00,0.70
6255.00,0.70
6254.00,0.70
6253.00,0.71
6252.00,0.71
6251.00,0.71
6250.00,0.71
6249.00,0.71
6248.00,0.71
6247.00,0.71
6246.00,0.71
6245.00,0.71
6244.00,0.71
6243.00,0.71
6242.00,0.71
6241.00,0.71
6240.00,0.71
6239.00,0.71
6238.00,0.72
6237.00,0.72
6236.00,0.72
6235.00,0.72
6234.00,0.72
6233.00,0.72
6232.00,0.72
6231.00,0.72
6230.00,0.72
6229.00,0.73
6228.00,0.73
6227.00,0.73
6226.00,0.73
6225.00,0.73
6224.00,0.73
6223.00,0.73
6222.00,0.73
6221.00,0.73
6220.00,0.74
6219.00,0.74
6218.00,0.74
6217.00,0.74
6216.00,0.74
6215.00,0.74
6214.00,0.74
6213.00,0.74
6212.00,0.74
6211.00,0.74
6210.00,0.74
6209.00,0.74
6208.00,0.74
6207.00,0.74
6206.00,0.74
6205.00,0.75
6204.00,0.75
6203.00,0.75
6202.00,0.75
6201.00,0.75
6200.00,0.75
6199.00,0.75
6198.00,0.75
6197.00,0.75
6196.00,0.75
6195.00,0.76
6194.00,0.76
6193.00,0.76
6192.00,0.76
6191.00,0.76
6190.00,0.76
6189.00,0.76
6188.00,0.76
6187.00,0.77
6186.00,0.77
6185.00,0.77
6184.00,0.77
6183.00,0.77
6182.00,0.77
6181.00,0.77
6180.00,0.77
6179.00,0.78
6178.00,0.78
6177.00,0.78
6176.00,0.78
6175.00,0.78
6174.00,0.78
6173.00,0.78
6172.00,0.78
6171.00,0.78
6170.00,0.78
6169.00,0.79
6168.00,0.79
6167.00,0.79
6166.00,0.79
6165.00,0.79
6164.00,0.79
6163.00,0.79
6162.00,0.79
6161.00,0.79
6160.00,0.79
6159.00,0.79
6158.00,0.80
6157.00,0.80
6156.00,0.80
6155.00,0.80
6154.00,0.80
6153.00,0.80
6152.00,0.80
6151.00,0.80
6150.00,0.80
6149.00,0.80
6148.00,0.80
6147.00,0.80
6146.00,0.81
6145.00,0.81
6144.00,0.81
6143.00,0.81
6142.00,0.81
6141.00,0.81
6140.00,0.81
6139.00,0.81
6138.00,0.82
6137.00,0.82
6136.00,0.82
6135.00,0.82
6134.00,0.82
6133.00,0.82
6132.00,0.82
6131.00,0.83
6130.00,0.83
6129.00,0.83
6128.00,0.83
6127.00,0.83
6126.00,0.83
6125.00,0.83
6124.00,0.83
6123.00,0.83
6122.00,0.84
6121.00,0.84
6120.00,0.84
6119.00,0.84
6118.00,0.84
6117.00,0.84
6116.00,0.84
6115.00,0.84
6114.00,0.84
6113.00,0.84
6112.00,0.84
6111.00,0.84
6110.00,0.84
6109.00,0.85
6108.00,0.85
6107.00,0.85
6106.00,0.85
6105.00,0.85
6104.00,0.85
6103.00,0.85
6102.00,0.85
6101.00,0.85
6100.00,0.86
6099.00,0.86
6098.00,0.86
6097.00,0.86
6096.00,0.86
6095.00,0.86
6094.00,0.86
6093.00,0.86
6092.00,0.86
6091.00,0.86
6090.00,0.86
6089.00,0.87
6088.00,0.87
6087.00,0.87
6086.00,0.87
6085.00,0.87
6084.00,0.87
6083.00,0.87
6082.00,0.87
6081.00,0.87
6080.00,0.87
6079.00,0.87
6078.00,0.88
6077.00,0.88
6076.00,0.88
6075.00,0.88
6074.00,0.88
6073.00,0.88
6072.00,0.88
6071.00,0.88
6070.00,0.88
6069.00,0.89
6068.00,0.89
6067.00,0.89
6066.00,0.89
6065.00,0.89
6064.00,0.89
6063.00,0.89
6062.00,0.89
6061.00,0.89
6060.00,0.89
6059.00,0.89
6058.00,0.89
6057.00,0.89
6056.00,0.89
6055.00,0.89
6054.00,0.89
6053.00,0.89
6052.00,0.89
6051.00,0.90
6050.00,0.90
6049.00,0.90
6048.00,0.90
6047.00,0.90
6046.00,0.90
6045.00,0.90
6044.00,0.90
6043.00,0.90
6042.00,0.90
6041.00,0.91
6040.00,0.91
6039.00,0.91
6038.00,0.91
6037.00,0.91
6036.00,0.91
6035.00,0.91
6034.00,0.91
6033.00,0.91
6032.00,0.91
6031.00,0.91
6030.00,0.91
6029.00,0.91
6028.00,0.91
6027.00,0.91
6026.00,0.91
6025.00,0.91
6024.00,0.91
6023.00,0.91
6022.00,0.91
6021.00,0.91
6020.00,0.91
6019.00,0.91
6018.00,0.90
6017.00,0.90
6016.00,0.90
6015.00,0.90
6014.00,0.90
6013.00,0.90
6012.00,0.90
6011.00,0.90
6010.00,0.90
6009.00,0.90
6008.00,0.90
6007.00,0.90
6006.00,0.90
6005.00,0.90
6004.00,0.90
6003.00,0.90
6002.00,0.90
6001.00,0.90
6000.00,0.90
5999.00,0.90
5998.00,0.90
5997.00,0.90
5996.00,0.90
5995.00,0.90
5994.00,0.90
5993.00,0.90
5992.00,0.90
5991.00,0.90
5990.00,0.90
5989.00,0.90
5988.00,0.90
5987.00,0.89
5986.00,0.89
5985.00,0.89
5984.00,0.89
5983.00,0.89
5982.00,0.88
5981.00,0.88
5980.00,0.88
5979.00,0.87
5978.00,0.87
5977.00,0.87
5976.00,0.87
5975.00,0.86
5974.00,0.86
5973.00,0.85
5972.00,0.85
5971.00,0.85
5970.00,0.84
5969.00,0.84
5968.00,0.83
5967.00,0.83
5966.00,0.82
5965.00,0.82
5964.00,0.81
5963.00,0.81
5962.00,0.80
5961.00,0.80
5960.00,0.79
5959.00,0.79
5958.00,0.78
5957.00,0.78
5956.00,0.77
5955.00,0.77
5954.00,0.77
5953.00,0.76
5952.00,0.76
5951.00,0.75
5950.00,0.75
5949.00,0.75
5948.00,0.74
5947.00,0.74
5946.00,0.74
5945.00,0.73
5944.00,0.73
5943.00,0.73
5942.00,0.73
5941.00,0.73
5940.00,0.72
5939.00,0.72
5938.00,0.72
5937.00,0.72
5936.00,0.72
5935.00,0.72
5934.00,0.72
5933.00,0.72
5932.00,0.72
5931.00,0.72
5930.00,0.71
5929.00,0.71
5928.00,0.71
5927.00,0.71
5926.00,0.71
5925.00,0.71
5924.00,0.71
5923.00,0.71
5922.00,0.71
5921.00,0.70
5920.00,0.70
5919.00,0.70
5918.00,0.70
5917.00,0.70
5916.00,0.70
5915.00,0.69
5914.00,0.69
5913.00,0.69
5912.00,0.69
5911.00,0.69
5910.00,0.69
5909.00,0.68
5908.00,0.68
5907.00,0.68
5906.00,0.68
5905.00,0.68
5904.00,0.68
5903.00,0.68
5902.00,0.68
5901.00,0.68
5900.00,0.68
5899.00,0.68
5898.00,0.68
5897.00,0.68
5896.00,0.68
5895.00,0.68
5894.00,0.68
5893.00,0.68
5892.00,0.68
5891.00,0.68
5890.00,0.69
5889.00,0.69
5888.00,0.69
5887.00,0.69
5886.00,0.69
5885.00,0.69
5884.00,0.70
5883.00,0.70
5882.00,0.70
5881.00,0.70
5880.00,0.70
5879.00,0.71
5878.00,0.71
5877.00,0.71
5876.00,0.71
5875.00,0.71
5874.00,0.71
5873.00,0.72
5872.00,0.72
5871.00,0.72
5870.00,0.72
5869.00,0.72
5868.00,0.72
5867.00,0.72
5866.00,0.73
5865.00,0.73
5864.00,0.73
5863.00,0.73
5862.00,0.73
5861.00,0.73
5860.00,0.73
5859.00,0.73
5858.00,0.73
5857.00,0.74
5856.00,0.74
5855.00,0.74
5854.00,0.74
5853.00,0.74
5852.00,0.74
5851.00,0.74
5850.00,0.74
5849.00,0.74
5848.00,0.74
5847.00,0.74
5846.00,0.75
5845.00,0.75
5844.00,0.75
5843.00,0.75
5842.00,0.75
5841.00,0.75
5840.00,0.75
5839.00,0.75
5838.00,0.75
5837.00,0.75
5836.00,0.75
5835.00,0.75
5834.00,0.75
5833.00,0.75
5832.00,0.75
5831.00,0.75
5830.00,0.75
5829.00,0.75
5828.00,0.75
5827.00,0.75
5826.00,0.75
5825.00,0.75
5824.00,0.74
5823.00,0.74
5822.00,0.74
5821.00,0.74
5820.00,0.74
5819.00,0.74
5818.00,0.74
5817.00,0.74
5816.00,0.74
5815.00,0.75
5814.00,0.75
5813.00,0.75
5812.00,0.75
5811.00,0.75
5810.00,0.75
5809.00,0.75
5808.00,0.75
5807.00,0.75
5806.00,0.75
5805.00,0.75
5804.00,0.75
5803.00,0.75
5802.00,0.75
5801.00,0.75
5800.00,0.75
5799.00,0.75
5798.00,0.75
5797.00,0.74
5796.00,0.74
5795.00,0.74
5794.00,0.74
5793.00,0.74
5792.00,0.74
5791.00,0.74
5790.00,0.74
5789.00,0.73
5788.00,0.73
5787.00,0.73
5786.00,0.73
5785.00,0.73
5784.00,0.73
5783.00,0.72
5782.00,0.72
5781.00,0.72
5780.00,0.72
5779.00,0.72
5778.00,0.72
5777.00,0.72
5776.00,0.71
5775.00,0.71
5774.00,0.71
5773.00,0.71
5772.00,0.71
5771.00,0.71
5770.00,0.71
5769.00,0.71
5768.00,0.71
5767.00,0.71
5766.00,0.72
5765.00,0.72
5764.00,0.72
5763.00,0.72
5762.00,0.72
5761.00,0.72
5760.00,0.72
5759.00,0.73
5758.00,0.73
5757.00,0.73
5756.00,0.73
5755.00,0.73
5754.00,0.74
5753.00,0.74
5752.00,0.74
5751.00,0.75
5750.00,0.75
5749.00,0.75
5748.00,0.75
5747.00,0.76
5746.00,0.76
5745.00,0.76
5744.00,0.76
5743.00,0.77
5742.00,0.77
5741.00,0.77
5740.00,0.77
5739.00,0.78
5738.00,0.78
5737.00,0.78
5736.00,0.78
5735.00,0.78
5734.00,0.79
5733.00,0.79
5732.00,0.79
5731.00,0.79
5730.00,0.79
5729.00,0.79
5728.00,0.79
5727.00,0.79
5726.00,0.79
5725.00,0.79
5724.00,0.80
5723.00,0.80
5722.00,0.80
5721.00,0.80
5720.00,0.80
5719.00,0.80
5718.00,0.80
5717.00,0.80
5716.00,0.80
5715.00,0.80
5714.00,0.80
5713.00,0.80
5712.00,0.80
5711.00,0.80
5710.00,0.80
5709.00,0.80
5708.00,0.80
5707.00,0.80
5706.00,0.80
5705.00,0.80
5704.00,0.80
5703.00,0.80
5702.00,0.80
5701.00,0.79
5700.00,0.79
5699.00,0.79
5698.00,0.79
5697.00,0.79
5696.00,0.79
5695.00,0.79
5694.00,0.79
5693.00,0.79
5692.00,0.79
5691.00,0.79
5690.00,0.78
5689.00,0.78
5688.00,0.78
5687.00,0.78
5686.00,0.78
5685.00,0.78
5684.00,0.78
5683.00,0.77
5682.00,0.77
5681.00,0.77
5680.00,0.77
5679.00,0.77
5678.00,0.77
5677.00,0.77
5676.00,0.77
5675.00,0.77
5674.00,0.77
5673.00,0.77
5672.00,0.77
5671.00,0.77
5670.00,0.77
5669.00,0.77
5668.00,0.77
5667.00,0.78
5666.00,0.78
5665.00,0.78
5664.00,0.78
5663.00,0.78
5662.00,0.78
5661.00,0.78
5660.00,0.78
5659.00,0.78
5658.00,0.79
5657.00,0.79
5656.00,0.79
5655.00,0.79
5654.00,0.79
5653.00,0.79
5652.00,0.79
5651.00,0.80
5650.00,0.80
5649.00,0.80
5648.00,0.80
5647.00,0.80
5646.00,0.80
5645.00,0.81
5644.00,0.81
5643.00,0.81
5642.00,0.81
5641.00,0.81
5640.00,0.81
5639.00,0.81
5638.00,0.81
5637.00,0.82
5636.00,0.82
5635.00,0.82
5634.00,0.82
5633.00,0.82
5632.00,0.82
5631.00,0.82
5630.00,0.82
5629.00,0.82
5628.00,0.83
5627.00,0.83
5626.00,0.83
5625.00,0.83
5624.00,0.83
5623.00,0.83
5622.00,0.83
5621.00,0.83
5620.00,0.83
5619.00,0.84
5618.00,0.84
5617.00,0.84
5616.00,0.84
5615.00,0.84
5614.00,0.84
5613.00,0.84
5612.00,0.85
5611.00,0.85
5610.00,0.85
5609.00,0.85
5608.00,0.85
5607.00,0.85
5606.00,0.85
5605.00,0.86
5604.00,0.86
5603.00,0.86
5602.00,0.86
5601.00,0.86
5600.00,0.86
5599.00,0.86
5598.00,0.87
5597.00,0.87
5596.00,0.87
5595.00,0.87
5594.00,0.87
5593.00,0.87
5592.00,0.87
5591.00,0.88
5590.00,0.88
5589.00,0.88
5588.00,0.88
5587.00,0.88
5586.00,0.88
5585.00,0.88
5584.00,0.88
5583.00,0.89
5582.00,0.89
5581.00,0.89
5580.00,0.89
5579.00,0.89
5578.00,0.89
5577.00,0.89
5576.00,0.89
5575.00,0.89
5574.00,0.90
5573.00,0.90
5572.00,0.90
5571.00,0.90
5570.00,0.90
5569.00,0.90
5568.00,0.90
5567.00,0.90
5566.00,0.90
5565.00,0.91
5564.00,0.91
5563.00,0.91
5562.00,0.91
5561.00,0.91
5560.00,0.91
5559.00,0.91
5558.00,0.91
5557.00,0.91
5556.00,0.92
5555.00,0.92
5554.00,0.92
5553.00,0.92
5552.00,0.92
5551.00,0.92
5550.00,0.92
5549.00,0.92
5548.00,0.92
5547.00,0.92
5546.00,0.92
5545.00,0.92
5544.00,0.93
5543.00,0.93
5542.00,0.93
5541.00,0.93
5540.00,0.93
5539.00,0.93
5538.00,0.93
5537.00,0.93
5536.00,0.93
5535.00,0.93
5534.00,0.93
5533.00,0.94
5532.00,0.94
5531.00,0.94
5530.00,0.94
5529.00,0.94
5528.00,0.94
5527.00,0.94
5526.00,0.94
5525.00,0.94
5524.00,0.94
5523.00,0.94
5522.00,0.94
5521.00,0.95
5520.00,0.95
5519.00,0.95
5518.00,0.95
5517.00,0.95
5516.00,0.95
5515.00,0.95
5514.00,0.95
5513.00,0.95
5512.00,0.95
5511.00,0.95
5510.00,0.95
5509.00,0.95
5508.00,0.95
5507.00,0.95
5506.00,0.95
5505.00,0.95
5504.00,0.95
5503.00,0.95
5502.00,0.95
5501.00,0.95
5500.00,0.95
5499.00,0.95
5498.00,0.96
5497.00,0.96
5496.00,0.96
5495.00,0.96
5494.00,0.96
5493.00,0.96
5492.00,0.96
5491.00,0.96
5490.00,0.96
5489.00,0.96
5488.00,0.96
5487.00,0.96
5486.00,0.97
5485.00,0.97
5484.00,0.97
5483.00,0.97
5482.00,0.97
5481.00,0.97
5480.00,0.97
5479.00,0.97
5478.00,0.97
5477.00,0.97
5476.00,0.97
5475.00,0.97
5474.00,0.97
5473.00,0.97
5472.00,0.97
5471.00,0.98
5470.00,0.98
5469.00,0.98
5468.00,0.98
5467.00,0.98
5466.00,0.98
5465.00,0.98
5464.00,0.98
5463.00,0.99
5462.00,0.99
5461.00,0.99
5460.00,0.99
5459.00,0.99
5458.00,0.99
5457.00,0.99
5456.00,0.99
5455.00,0.99
5454.00,0.99
5453.00,0.99
5452.00,0.99
5451.00,0.99
5450.00,0.99
5449.00,0.99
5448.00,0.99
5447.00,0.99
5446.00,0.99
5445.00,0.99
5444.00,0.99
5443.00,0.99
5442.00,0.99
5441.00,0.99
5440.00,0.99
5439.00,0.99
5438.00,0.99
5437.00,0.99
5436.00,0.99
5435.00,0.99
5434.00,0.99
5433.00,0.99
5432.00,0.99
5431.00,0.99
5430.00,0.99
5429.00,0.99
5428.00,1.00
5427.00,1.00
5426.00,1.00
5425.00,1.00
5424.00,1.00
5423.00,1.00
5422.00,1.00
5421.00,1.00
5420.00,1.00
5419.00,1.00
5418.00,1.00
5417.00,1.00
5416.00,1.00
5415.00,1.00
5414.00,1.00
5413.00,1.00
5412.00,1.00
5411.00,1.00
5410.00,1.00
5409.00,1.00
5408.00,1.00
5407.00,1.00
5406.00,1.00
5405.00,1.00
5404.00,1.00
5403.00,1.00
5402.00,1.00
5401.00,1.00
5400.00,1.00
5399.00,1.00
5398.00,1.00
5397.00,1.00
5396.00,1.00
5395.00,1.00
5394.00,1.00
5393.00,1.00
5392.00,1.00
5391.00,0.99
5390.00,0.99
5389.00,0.99
5388.00,0.99
5387.00,0.99
5386.00,0.99
5385.00,0.98
5384.00,0.98
5383.00,0.98
5382.00,0.98
5381.00,0.98
5380.00,0.97
5379.00,0.97
5378.00,0.97
5377.00,0.97
5376.00,0.97
5375.00,0.96
5374.00,0.96
5373.00,0.96
5372.00,0.95
5371.00,0.95
5370.00,0.95
5369.00,0.95
5368.00,0.94
5367.00,0.94
5366.00,0.94
5365.00,0.93
5364.00,0.93
5363.00,0.92
5362.00,0.92
5361.00,0.91
5360.00,0.91
5359.00,0.91
5358.00,0.90
5357.00,0.90
5356.00,0.89
5355.00,0.88
5354.00,0.88
5353.00,0.87
5352.00,0.87
5351.00,0.86
5350.00,0.86
5349.00,0.85
5348.00,0.84
5347.00,0.84
5346.00,0.83
5345.00,0.82
5344.00,0.82
5343.00,0.81
5342.00,0.80
5341.00,0.80
5340.00,0.79
5339.00,0.78
5338.00,0.77
5337.00,0.77
5336.00,0.76
5335.00,0.75
5334.00,0.75
5333.00,0.74
5332.00,0.73
5331.00,0.73
5330.00,0.72
5329.00,0.71
5328.00,0.71
5327.00,0.70
5326.00,0.69
5325.00,0.68
5324.00,0.68
5323.00,0.67
5322.00,0.66
5321.00,0.66
5320.00,0.65
5319.00,0.64
5318.00,0.64
5317.00,0.63
5316.00,0.62
5315.00,0.62
5314.00,0.61
5313.00,0.60
5312.00,0.60
5311.00,0.59
5310.00,0.59
5309.00,0.58
5308.00,0.57
5307.00,0.57
5306.00,0.56
5305.00,0.56
5304.00,0.55
5303.00,0.55
5302.00,0.55
5301.00,0.54
5300.00,0.54
5299.00,0.54
5298.00,0.53
5297.00,0.53
5296.00,0.53
5295.00,0.52
5294.00,0.52
5293.00,0.52
5292.00,0.52
5291.00,0.51
5290.00,0.51
5289.00,0.51
5288.00,0.51
5287.00,0.51
5286.00,0.51
5285.00,0.51
5284.00,0.50
5283.00,0.50
5282.00,0.50
5281.00,0.50
5280.00,0.50
5279.00,0.50
5278.00,0.50
5277.00,0.50
5276.00,0.49
5275.00,0.49
5274.00,0.49
5273.00,0.49
5272.00,0.49
5271.00,0.49
5270.00,0.49
5269.00,0.49
5268.00,0.49
5267.00,0.49
5266.00,0.48
5265.00,0.48
5264.00,0.48
5263.00,0.48
5262.00,0.48
5261.00,0.48
5260.00,0.48
5259.00,0.48
5258.00,0.48
5257.00,0.48
5256.00,0.48
5255.00,0.48
5254.00,0.48
5253.00,0.48
5252.00,0.48
5251.00,0.48
5250.00,0.48
5249.00,0.48
5248.00,0.48
5247.00,0.48
5246.00,0.48
5245.00,0.48
5244.00,0.48
5243.00,0.48
5242.00,0.48
5241.00,0.48
5240.00,0.48
5239.00,0.48
5238.00,0.48
5237.00,0.48
5236.00,0.48
5235.00,0.48
5234.00,0.48
5233.00,0.48
5232.00,0.48
5231.00,0.48
5230.00,0.48
5229.00,0.48
5228.00,0.48
5227.00,0.48
5226.00,0.48
5225.00,0.48
5224.00,0.48
5223.00,0.48
5222.00,0.48
5221.00,0.48
5220.00,0.48
5219.00,0.48
5218.00,0.48
5217.00,0.48
5216.00,0.48
5215.00,0.48
5214.00,0.48
5213.00,0.48
5212.00,0.48
5211.00,0.48
5210.00,0.48
5209.00,0.48
5208.00,0.48
5207.00,0.49
5206.00,0.49
5205.00,0.49
5204.00,0.49
5203.00,0.49
5202.00,0.49
5201.00,0.49
5200.00,0.49
5199.00,0.49
5198.00,0.49
5197.00,0.49
5196.00,0.49
5195.00,0.49
5194.00,0.49
5193.00,0.49
5192.00,0.49
5191.00,0.49
5190.00,0.49
5189.00,0.49
5188.00,0.49
5187.00,0.49
5186.00,0.49
5185.00,0.49
5184.00,0.49
5183.00,0.49
5182.00,0.49
5181.00,0.49
5180.00,0.49
5179.00,0.49
5178.00,0.49
5177.00,0.49
5176.00,0.49
5175.00,0.49
5174.00,0.49
5173.00,0.49
5172.00,0.50
5171.00,0.50
5170.00,0.50
5169.00,0.50
5168.00,0.50
5167.00,0.50
5166.00,0.50
5165.00,0.50
5164.00,0.50
5163.00,0.50
5162.00,0.50
5161.00,0.50
5160.00,0.50
5159.00,0.50
5158.00,0.50
5157.00,0.50
5156.00,0.50
5155.00,0.50
5154.00,0.50
5153.00,0.50
5152.00,0.50
5151.00,0.50
5150.00,0.50
5149.00,0.50
5148.00,0.50
5147.00,0.51
5146.00,0.51
5145.00,0.51
5144.00,0.51
5143.00,0.51
5142.00,0.51
5141.00,0.51
5140.00,0.51
5139.00,0.51
5138.00,0.51
5137.00,0.51
5136.00,0.51
5135.00,0.51
5134.00,0.51
5133.00,0.51
5132.00,0.51
5131.00,0.51
5130.00,0.51
5129.00,0.51
5128.00,0.51
5127.00,0.51
5126.00,0.51
5125.00,0.51
5124.00,0.51
5123.00,0.51
5122.00,0.51
5121.00,0.52
5120.00,0.52
5119.00,0.52
5118.00,0.52
5117.00,0.52
5116.00,0.52
5115.00,0.52
5114.00,0.52
5113.00,0.52
5112.00,0.52
5111.00,0.52
5110.00,0.52
5109.00,0.52
5108.00,0.52
5107.00,0.52
5106.00,0.52
5105.00,0.52
5104.00,0.52
5103.00,0.52
5102.00,0.52
5101.00,0.52
5100.00,0.52
5099.00,0.52
5098.00,0.52
5097.00,0.52
5096.00,0.52
5095.00,0.52
5094.00,0.52
5093.00,0.52
5092.00,0.52
5091.00,0.52
5090.00,0.53
5089.00,0.53
5088.00,0.53
5087.00,0.53
5086.00,0.53
5085.00,0.53
5084.00,0.53
5083.00,0.53
5082.00,0.53
5081.00,0.53
5080.00,0.53
5079.00,0.53
5078.00,0.53
5077.00,0.53
5076.00,0.53
5075.00,0.53
5074.00,0.53
5073.00,0.53
5072.00,0.53
5071.00,0.53
5070.00,0.53
5069.00,0.53
5068.00,0.53
5067.00,0.53
5066.00,0.53
5065.00,0.54
5064.00,0.54
5063.00,0.54
5062.00,0.54
5061.00,0.54
5060.00,0.54
5059.00,0.54
5058.00,0.54
5057.00,0.54
5056.00,0.54
5055.00,0.54
5054.00,0.54
5053.00,0.54
5052.00,0.54
5051.00,0.54
5050.00,0.54
5049.00,0.54
5048.00,0.54
5047.00,0.54
5046.00,0.55
5045.00,0.55
5044.00,0.55
5043.00,0.55
5042.00,0.55
5041.00,0.55
5040.00,0.55
5039.00,0.55
5038.00,0.55
5037.00,0.55
5036.00,0.55
5035.00,0.55
5034.00,0.55
5033.00,0.55
5032.00,0.55
5031.00,0.55
5030.00,0.55
5029.00,0.55
5028.00,0.55
5027.00,0.55
5026.00,0.55
5025.00,0.56
5024.00,0.56
5023.00,0.56
5022.00,0.56
5021.00,0.56
5020.00,0.56
5019.00,0.56
5018.00,0.56
5017.00,0.56
5016.00,0.56
5015.00,0.56
5014.00,0.57
5013.00,0.57
5012.00,0.57
5011.00,0.57
5010.00,0.57
5009.00,0.57
5008.00,0.57
5007.00,0.57
5006.00,0.57
5005.00,0.57
5004.00,0.57
5003.00,0.57
5002.00,0.57
5001.00,0.57
5000.00,0.57
4999.00,0.57
4998.00,0.57
4997.00,0.57
4996.00,0.57
4995.00,0.58
4994.00,0.58
4993.00,0.58
4992.00,0.58
4991.00,0.58
4990.00,0.58
4989.00,0.58
4988.00,0.58
4987.00,0.58
4986.00,0.58
4985.00,0.58
4984.00,0.58
4983.00,0.58
4982.00,0.58
4981.00,0.58
4980.00,0.59
4979.00,0.59
4978.00,0.59
4977.00,0.59
4976.00,0.59
4975.00,0.59
4974.00,0.59
4973.00,0.59
4972.00,0.59
4971.00,0.59
4970.00,0.59
4969.00,0.59
4968.00,0.59
4967.00,0.59
4966.00,0.59
4965.00,0.59
4964.00,0.59
4963.00,0.59
4962.00,0.59
4961.00,0.59
4960.00,0.59
4959.00,0.59
4958.00,0.59
4957.00,0.59
4956.00,0.59
4955.00,0.59
4954.00,0.59
4953.00,0.60
4952.00,0.60
4951.00,0.60
4950.00,0.60
4949.00,0.60
4948.00,0.60
4947.00,0.60
4946.00,0.60
4945.00,0.60
4944.00,0.60
4943.00,0.60
4942.00,0.60
4941.00,0.60
4940.00,0.61
4939.00,0.61
4938.00,0.61
4937.00,0.61
4936.00,0.61
4935.00,0.61
4934.00,0.61
4933.00,0.61
4932.00,0.61
4931.00,0.61
4930.00,0.61
4929.00,0.61
4928.00,0.61
4927.00,0.62
4926.00,0.62
4925.00,0.62
4924.00,0.62
4923.00,0.62
4922.00,0.62
4921.00,0.62
4920.00,0.62
4919.00,0.62
4918.00,0.62
4917.00,0.62
4916.00,0.62
4915.00,0.62
4914.00,0.62
4913.00,0.62
4912.00,0.62
4911.00,0.62
4910.00,0.62
4909.00,0.62
4908.00,0.62
4907.00,0.62
4906.00,0.62
4905.00,0.62
4904.00,0.63
4903.00,0.63
4902.00,0.63
4901.00,0.63
4900.00,0.63
4899.00,0.63
4898.00,0.63
4897.00,0.63
4896.00,0.63
4895.00,0.63
4894.00,0.63
4893.00,0.63
4892.00,0.63
4891.00,0.63
4890.00,0.63
4889.00,0.63
4888.00,0.63
4887.00,0.63
4886.00,0.63
4885.00,0.63
4884.00,0.63
4883.00,0.63
4882.00,0.63
4881.00,0.63
4880.00,0.63
4879.00,0.63
4878.00,0.63
4877.00,0.63
4876.00,0.63
4875.00,0.63
4874.00,0.63
4873.00,0.63
4872.00,0.64
4871.00,0.64
4870.00,0.64
4869.00,0.64
4868.00,0.64
4867.00,0.64
4866.00,0.64
4865.00,0.64
4864.00,0.64
4863.00,0.64
4862.00,0.64
4861.00,0.64
4860.00,0.64
4859.00,0.64
4858.00,0.64
4857.00,0.64
4856.00,0.64
4855.00,0.64
4854.00,0.65
4853.00,0.65
4852.00,0.65
4851.00,0.65
4850.00,0.65
4849.00,0.65
4848.00,0.65
4847.00,0.65
4846.00,0.65
4845.00,0.65
4844.00,0.65
4843.00,0.65
4842.00,0.65
4841.00,0.65
4840.00,0.65
4839.00,0.65
4838.00,0.65
4837.00,0.65
4836.00,0.65
4835.00,0.65
4834.00,0.65
4833.00,0.66
4832.00,0.66
4831.00,0.66
4830.00,0.66
4829.00,0.66
4828.00,0.66
4827.00,0.66
4826.00,0.66
4825.00,0.66
4824.00,0.66
4823.00,0.66
4822.00,0.66
4821.00,0.66
4820.00,0.66
4819.00,0.66
4818.00,0.66
4817.00,0.66
4816.00,0.66
4815.00,0.66
4814.00,0.66
4813.00,0.66
4812.00,0.66
4811.00,0.66
4810.00,0.67
4809.00,0.67
4808.00,0.67
4807.00,0.67
4806.00,0.67
4805.00,0.67
4804.00,0.67
4803.00,0.67
4802.00,0.67
4801.00,0.67
4800.00,0.67
4799.00,0.67
4798.00,0.67
4797.00,0.68
4796.00,0.68
4795.00,0.68
4794.00,0.68
4793.00,0.68
4792.00,0.68
4791.00,0.68
4790.00,0.68
4789.00,0.68
4788.00,0.68
4787.00,0.68
4786.00,0.68
4785.00,0.69
4784.00,0.69
4783.00,0.69
4782.00,0.69
4781.00,0.69
4780.00,0.69
4779.00,0.69
4778.00,0.69
4777.00,0.69
4776.00,0.70
4775.00,0.70
4774.00,0.70
4773.00,0.70
4772.00,0.70
4771.00,0.70
4770.00,0.70
4769.00,0.70
4768.00,0.70
4767.00,0.71
4766.00,0.71
4765.00,0.71
4764.00,0.71
4763.00,0.71
4762.00,0.71
4761.00,0.71
4760.00,0.71
4759.00,0.71
4758.00,0.71
4757.00,0.71
4756.00,0.71
4755.00,0.71
4754.00,0.71
4753.00,0.71
4752.00,0.71
4751.00,0.71
4750.00,0.71
4749.00,0.71
4748.00,0.72
4747.00,0.72
4746.00,0.72
4745.00,0.72
4744.00,0.72
4743.00,0.72
4742.00,0.72
4741.00,0.72
4740.00,0.72
4739.00,0.73
4738.00,0.73
4737.00,0.73
4736.00,0.73
4735.00,0.73
4734.00,0.73
4733.00,0.73
4732.00,0.73
4731.00,0.73
4730.00,0.73
4729.00,0.73
4728.00,0.73
4727.00,0.74
4726.00,0.74
4725.00,0.74
4724.00,0.74
4723.00,0.74
4722.00,0.74
4721.00,0.74
4720.00,0.74
4719.00,0.74
4718.00,0.74
4717.00,0.74
4716.00,0.75
4715.00,0.75
4714.00,0.75
4713.00,0.75
4712.00,0.75
4711.00,0.75
4710.00,0.76
4709.00,0.76
4708.00,0.76
4707.00,0.76
4706.00,0.76
4705.00,0.76
4704.00,0.77
4703.00,0.77
4702.00,0.77
4701.00,0.77
4700.00,0.77
4699.00,0.77
4698.00,0.77
4697.00,0.77
4696.00,0.77
4695.00,0.77
4694.00,0.77
4693.00,0.77
4692.00,0.77
4691.00,0.78
4690.00,0.78
4689.00,0.78
4688.00,0.78
4687.00,0.78
4686.00,0.78
4685.00,0.78
4684.00,0.78
4683.00,0.78
4682.00,0.78
4681.00,0.79
4680.00,0.79
4679.00,0.79
4678.00,0.79
4677.00,0.79
4676.00,0.79
4675.00,0.79
4674.00,0.79
4673.00,0.79
4672.00,0.80
4671.00,0.80
4670.00,0.80
4669.00,0.80
4668.00,0.80
4667.00,0.80
4666.00,0.80
4665.00,0.80
4664.00,0.80
4663.00,0.81
4662.00,0.81
4661.00,0.81
4660.00,0.81
4659.00,0.81
4658.00,0.81
4657.00,0.81
4656.00,0.81
4655.00,0.82
4654.00,0.82
4653.00,0.82
4652.00,0.82
4651.00,0.82
4650.00,0.82
4649.00,0.82
4648.00,0.82
4647.00,0.82
4646.00,0.82
4645.00,0.82
4644.00,0.83
4643.00,0.83
4642.00,0.83
4641.00,0.83
4640.00,0.83
4639.00,0.83
4638.00,0.83
4637.00,0.83
4636.00,0.83
4635.00,0.83
4634.00,0.84
4633.00,0.84
4632.00,0.84
4631.00,0.84
4630.00,0.84
4629.00,0.84
4628.00,0.84
4627.00,0.84
4626.00,0.84
4625.00,0.84
4624.00,0.84
4623.00,0.84
4622.00,0.84
4621.00,0.84
4620.00,0.84
4619.00,0.84
4618.00,0.84
4617.00,0.84
4616.00,0.84
4615.00,0.85
4614.00,0.85
4613.00,0.85
4612.00,0.85
4611.00,0.85
4610.00,0.85
4609.00,0.85
4608.00,0.85
4607.00,0.85
4606.00,0.85
4605.00,0.85
4604.00,0.85
4603.00,0.85
4602.00,0.85
4601.00,0.85
4600.00,0.85
4599.00,0.85
4598.00,0.85
4597.00,0.85
4596.00,0.85
4595.00,0.85
4594.00,0.85
4593.00,0.85
4592.00,0.85
4591.00,0.85
4590.00,0.86
4589.00,0.86
4588.00,0.86
4587.00,0.86
4586.00,0.86
4585.00,0.86
4584.00,0.86
4583.00,0.86
4582.00,0.86
4581.00,0.86
4580.00,0.86
4579.00,0.87
4578.00,0.87
4577.00,0.87
4576.00,0.87
4575.00,0.87
4574.00,0.87
4573.00,0.87
4572.00,0.87
4571.00,0.87
4570.00,0.88
4569.00,0.88
4568.00,0.88
4567.00,0.88
4566.00,0.88
4565.00,0.88
4564.00,0.88
4563.00,0.88
4562.00,0.88
4561.00,0.88
4560.00,0.88
4559.00,0.88
4558.00,0.88
4557.00,0.89
4556.00,0.89
4555.00,0.89
4554.00,0.89
4553.00,0.89
4552.00,0.89
4551.00,0.89
4550.00,0.89
4549.00,0.89
4548.00,0.89
4547.00,0.89
4546.00,0.89
4545.00,0.89
4544.00,0.89
4543.00,0.89
4542.00,0.89
4541.00,0.89
4540.00,0.89
4539.00,0.89
4538.00,0.89
4537.00,0.89
4536.00,0.89
4535.00,0.89
4534.00,0.89
4533.00,0.89
4532.00,0.89
4531.00,0.89
4530.00,0.89
4529.00,0.89
4528.00,0.90
4527.00,0.90
4526.00,0.90
4525.00,0.90
4524.00,0.90
4523.00,0.90
4522.00,0.90
4521.00,0.90
4520.00,0.90
4519.00,0.90
4518.00,0.90
4517.00,0.90
4516.00,0.90
4515.00,0.90
4514.00,0.90
4513.00,0.90
4512.00,0.91
4511.00,0.91
4510.00,0.91
4509.00,0.90
4508.00,0.90
4507.00,0.90
4506.00,0.90
4505.00,0.90
4504.00,0.90
4503.00,0.90
4502.00,0.90
4501.00,0.90
4500.00,0.90
4499.00,0.90
4498.00,0.90
4497.00,0.90
4496.00,0.90
4495.00,0.90
4494.00,0.90
4493.00,0.91
4492.00,0.90
4491.00,0.90
4490.00,0.90
4489.00,0.90
4488.00,0.90
4487.00,0.90
4486.00,0.90
4485.00,0.90
4484.00,0.90
4483.00,0.90
4482.00,0.90
4481.00,0.90
4480.00,0.90
4479.00,0.90
4478.00,0.90
4477.00,0.89
4476.00,0.89
4475.00,0.89
4474.00,0.89
4473.00,0.89
4472.00,0.89
4471.00,0.88
4470.00,0.88
4469.00,0.88
4468.00,0.88
4467.00,0.88
4466.00,0.87
4465.00,0.87
4464.00,0.87
4463.00,0.87
4462.00,0.87
4461.00,0.86
4460.00,0.86
4459.00,0.86
4458.00,0.86
4457.00,0.86
4456.00,0.85
4455.00,0.85
4454.00,0.85
4453.00,0.85
4452.00,0.85
4451.00,0.84
4450.00,0.84
4449.00,0.84
4448.00,0.84
4447.00,0.83
4446.00,0.83
4445.00,0.83
4444.00,0.83
4443.00,0.83
4442.00,0.82
4441.00,0.82
4440.00,0.82
4439.00,0.82
4438.00,0.82
4437.00,0.82
4436.00,0.81
4435.00,0.81
4434.00,0.81
4433.00,0.81
4432.00,0.81
4431.00,0.81
4430.00,0.81
4429.00,0.80
4428.00,0.80
4427.00,0.80
4426.00,0.80
4425.00,0.80
4424.00,0.80
4423.00,0.80
4422.00,0.80
4421.00,0.80
4420.00,0.80
4419.00,0.79
4418.00,0.79
4417.00,0.79
4416.00,0.79
4415.00,0.79
4414.00,0.79
4413.00,0.79
4412.00,0.79
4411.00,0.79
4410.00,0.79
4409.00,0.79
4408.00,0.79
4407.00,0.79
4406.00,0.80
4405.00,0.80
4404.00,0.80
4403.00,0.80
4402.00,0.80
4401.00,0.80
4400.00,0.80
4399.00,0.80
4398.00,0.80
4397.00,0.80
4396.00,0.80
4395.00,0.80
4394.00,0.81
4393.00,0.81
4392.00,0.81
4391.00,0.81
4390.00,0.81
4389.00,0.81
4388.00,0.81
4387.00,0.81
4386.00,0.82
4385.00,0.82
4384.00,0.82
4383.00,0.82
4382.00,0.82
4381.00,0.82
4380.00,0.82
4379.00,0.82
4378.00,0.82
4377.00,0.82
4376.00,0.82
4375.00,0.82
4374.00,0.82
4373.00,0.82
4372.00,0.82
4371.00,0.82
4370.00,0.82
4369.00,0.82
4368.00,0.82
4367.00,0.82
4366.00,0.82
4365.00,0.82
4364.00,0.82
4363.00,0.82
4362.00,0.82
4361.00,0.82
4360.00,0.83
4359.00,0.83
4358.00,0.83
4357.00,0.83
4356.00,0.83
4355.00,0.83
4354.00,0.83
4353.00,0.83
4352.00,0.83
4351.00,0.83
4350.00,0.83
4349.00,0.83
4348.00,0.83
4347.00,0.83
4346.00,0.83
4345.00,0.83
4344.00,0.83
4343.00,0.83
4342.00,0.83
4341.00,0.83
4340.00,0.83
4339.00,0.83
4338.00,0.83
4337.00,0.83
4336.00,0.83
4335.00,0.83
4334.00,0.83
4333.00,0.83
4332.00,0.83
4331.00,0.83
4330.00,0.83
4329.00,0.83
4328.00,0.83
4327.00,0.83
4326.00,0.84
4325.00,0.84
4324.00,0.84
4323.00,0.84
4322.00,0.84
4321.00,0.84
4320.00,0.84
4319.00,0.85
4318.00,0.85
4317.00,0.85
4316.00,0.85
4315.00,0.85
4314.00,0.85
4313.00,0.85
4312.00,0.86
4311.00,0.86
4310.00,0.86
4309.00,0.86
4308.00,0.86
4307.00,0.86
4306.00,0.86
4305.00,0.86
4304.00,0.86
4303.00,0.86
4302.00,0.86
4301.00,0.86
4300.00,0.86
4299.00,0.87
4298.00,0.87
4297.00,0.87
4296.00,0.87
4295.00,0.87
4294.00,0.87
4293.00,0.87
4292.00,0.87
4291.00,0.87
4290.00,0.87
4289.00,0.87
4288.00,0.87
4287.00,0.87
4286.00,0.87
4285.00,0.87
4284.00,0.87
4283.00,0.87
4282.00,0.87
4281.00,0.88
4280.00,0.88
4279.00,0.88
4278.00,0.88
4277.00,0.88
4276.00,0.88
4275.00,0.88
4274.00,0.88
4273.00,0.88
4272.00,0.88
4271.00,0.88
4270.00,0.88
4269.00,0.88
4268.00,0.88
4267.00,0.88
4266.00,0.88
4265.00,0.88
4264.00,0.88
4263.00,0.88
4262.00,0.88
4261.00,0.88
4260.00,0.88
4259.00,0.88
4258.00,0.88
4257.00,0.88
4256.00,0.88
4255.00,0.88
4254.00,0.88
4253.00,0.88
4252.00,0.88
4251.00,0.88
4250.00,0.88
4249.00,0.89
4248.00,0.89
4247.00,0.89
4246.00,0.89
4245.00,0.89
4244.00,0.89
4243.00,0.89
4242.00,0.89
4241.00,0.90
4240.00,0.90
4239.00,0.90
4238.00,0.90
4237.00,0.90
4236.00,0.90
4235.00,0.90
4234.00,0.90
4233.00,0.90
4232.00,0.90
4231.00,0.90
4230.00,0.90
4229.00,0.90
4228.00,0.90
4227.00,0.90
4226.00,0.90
4225.00,0.90
4224.00,0.90
4223.00,0.91
4222.00,0.91
4221.00,0.91
4220.00,0.91
4219.00,0.91
4218.00,0.91
4217.00,0.91
4216.00,0.91
4215.00,0.91
4214.00,0.92
4213.00,0.92
4212.00,0.92
4211.00,0.92
4210.00,0.92
4209.00,0.92
4208.00,0.92
4207.00,0.92
4206.00,0.92
4205.00,0.92
4204.00,0.92
4203.00,0.92
4202.00,0.92
4201.00,0.92
4200.00,0.92
4199.00,0.92
4198.00,0.92
4197.00,0.92
4196.00,0.92
4195.00,0.92
4194.00,0.92
4193.00,0.92
4192.00,0.92
4191.00,0.92
4190.00,0.92
4189.00,0.92
4188.00,0.92
4187.00,0.92
4186.00,0.92
4185.00,0.92
4184.00,0.92
4183.00,0.92
4182.00,0.92
4181.00,0.92
4180.00,0.92
4179.00,0.92
4178.00,0.92
4177.00,0.92
4176.00,0.92
4175.00,0.92
4174.00,0.92
4173.00,0.92
4172.00,0.92
4171.00,0.92
4170.00,0.92
4169.00,0.92
4168.00,0.92
4167.00,0.92
4166.00,0.92
4165.00,0.92
4164.00,0.92
4163.00,0.92
4162.00,0.92
4161.00,0.92
4160.00,0.93
4159.00,0.93
4158.00,0.93
4157.00,0.93
4156.00,0.93
4155.00,0.93
4154.00,0.93
4153.00,0.94
4152.00,0.94
4151.00,0.94
4150.00,0.94
4149.00,0.94
4148.00,0.94
4147.00,0.94
4146.00,0.95
4145.00,0.95
4144.00,0.95
4143.00,0.95
4142.00,0.95
4141.00,0.95
4140.00,0.95
4139.00,0.95
4138.00,0.95
4137.00,0.95
4136.00,0.95
4135.00,0.95
4134.00,0.95
4133.00,0.95
4132.00,0.95
4131.00,0.95
4130.00,0.95
4129.00,0.95
4128.00,0.95
4127.00,0.95
4126.00,0.95
4125.00,0.95
4124.00,0.95
4123.00,0.95
4122.00,0.95
4121.00,0.96
4120.00,0.96
4119.00,0.96
4118.00,0.96
4117.00,0.96
4116.00,0.96
4115.00,0.96
4114.00,0.96
4113.00,0.96
4112.00,0.96
4111.00,0.96
4110.00,0.96
4109.00,0.97
4108.00,0.97
4107.00,0.97
4106.00,0.97
4105.00,0.97
4104.00,0.97
4103.00,0.97
4102.00,0.97
4101.00,0.97
4100.00,0.97
4099.00,0.97
4098.00,0.97
4097.00,0.97
4096.00,0.97
4095.00,0.97
4094.00,0.97
4093.00,0.97
4092.00,0.97
4091.00,0.97
4090.00,0.97
4089.00,0.97
4088.00,0.97
4087.00,0.97
4086.00,0.97
4085.00,0.97
4084.00,0.97
4083.00,0.97
4082.00,0.97
4081.00,0.97
4080.00,0.97
4079.00,0.97
4078.00,0.97
4077.00,0.97
4076.00,0.97
4075.00,0.97
4074.00,0.97
4073.00,0.98
4072.00,0.98
4071.00,0.98
4070.00,0.98
4069.00,0.98
4068.00,0.98
4067.00,0.98
4066.00,0.99
4065.00,0.99
4064.00,0.99
4063.00,0.99
4062.00,0.99
4061.00,0.99
4060.00,0.99
4059.00,0.99
4058.00,0.99
4057.00,0.99
4056.00,0.99
4055.00,0.99
4054.00,0.99
4053.00,0.99
4052.00,0.99
4051.00,0.99
4050.00,0.99
4049.00,0.99
4048.00,0.99
4047.00,0.99
4046.00,0.99
4045.00,0.99
4044.00,0.99
4043.00,0.98
4042.00,0.98
4041.00,0.98
4040.00,0.98
4039.00,0.98
4038.00,0.98
4037.00,0.98
4036.00,0.98
4035.00,0.98
4034.00,0.99
4033.00,0.99
4032.00,0.99
4031.00,0.99
4030.00,0.99
4029.00,0.99
4028.00,0.99
4027.00,0.99
4026.00,0.99
4025.00,0.99
4024.00,0.99
4023.00,0.99
4022.00,0.99
4021.00,0.99
4020.00,0.99
4019.00,0.99
4018.00,0.99
4017.00,0.99
4016.00,0.99
4015.00,0.99
4014.00,0.99
4013.00,0.99
4012.00,0.99
4011.00,0.99
4010.00,0.99
4009.00,0.99
4008.00,0.99
4007.00,0.99
4006.00,1.00
4005.00,1.00
4004.00,1.00
4003.00,1.00
4002.00,1.00
4001.00,1.00
4000.00,1.00
